#     FILENAME=!Skynet_57528_lach-hhg-110_20377_20917.cyb.fits
#     BASENAME=Skynet_57528_lach-hhg-110_20377_20917
#     SRC_NAME=lach-hhg-110
#     OBSERVER=hhgmadison16_9500
#     DATE_OBS=2016-05-20T15:43:25.500
#        OBSID=20377
#      SCANNUM=20917
#          MJD=57528.6562
#          UTC=56694
#     SCANTYPE=track
#     DATAMODE=HIRES
#     TUNEFREQ=1420.0000
# Actual_FREQ1=1420.0000
# Actual_FREQ2=1420.0000
#    LO1Tuning=6870.000
#     RFFILTER=1355_1435
#        OBSBW=-15.6250
#        NCHAN=1024 
#        FOCUS=37.0709
#           RA=23:04:35.88
#          DEC=60:09:34.41
#      RA(hrs)=23.076600
#     DEC(deg)=60.159600
#    AZIM(deg)=321.473
#    ELEV(deg)=52.790
#     IFattens=10.00, 10.00
#      WARNING=None
#    TCAL_XL1=7.9635
#    TCAL_YR1=9.1340
#    TCAL_XL2=7.9635
#    TCAL_YR2=9.1340
#     TRX_XL1=11.7060
#     TRX_YR1=11.7060
#     TRX_XL2=11.7060
#     TRX_YR2=11.7060
#        TAVE=1.0000
#Freq1(MHz)          XL1          YR1  Freq2(MHz)          XL2          YR2 

   1427.81250     298.3009     289.4223   1427.81250     298.3009     289.4223
   1427.79724     299.5834     290.3520   1427.79724     299.5834     290.3520
   1427.78198     300.2459     291.4769   1427.78198     300.2459     291.4769
   1427.76672     300.4226     292.0721   1427.76672     300.4226     292.0721
   1427.75146     300.9803     292.9797   1427.75146     300.9803     292.9797
   1427.73621     301.7801     294.0791   1427.73621     301.7801     294.0791
   1427.72095     302.7569     295.3845   1427.72095     302.7569     295.3845
   1427.70569     303.1757     296.2220   1427.70569     303.1757     296.2220
   1427.69043     303.8948     297.2037   1427.69043     303.8948     297.2037
   1427.67517     305.2321     298.5065   1427.67517     305.2321     298.5065
   1427.65991     305.8558     299.4172   1427.65991     305.8558     299.4172
   1427.64465     306.9060     301.4460   1427.64465     306.9060     301.4460
   1427.62939     308.4517     302.3378   1427.62939     308.4517     302.3378
   1427.61414     308.6366     303.3901   1427.61414     308.6366     303.3901
   1427.59888     309.8513     304.7224   1427.59888     309.8513     304.7224
   1427.58362     311.5734     306.2688   1427.58362     311.5734     306.2688
   1427.56836     312.0108     307.2422   1427.56836     312.0108     307.2422
   1427.55310     313.7454     309.2967   1427.55310     313.7454     309.2967
   1427.53784     315.3923     309.4746   1427.53784     315.3923     309.4746
   1427.52258     316.2141     311.6784   1427.52258     316.2141     311.6784
   1427.50732     317.5251     313.3328   1427.50732     317.5251     313.3328
   1427.49207     318.7607     314.9690   1427.49207     318.7607     314.9690
   1427.47681     319.6837     316.0501   1427.47681     319.6837     316.0501
   1427.46155     321.5667     317.6096   1427.46155     321.5667     317.6096
   1427.44629     322.9137     319.8231   1427.44629     322.9137     319.8231
   1427.43103     324.0153     321.3289   1427.43103     324.0153     321.3289
   1427.41577     326.0713     322.9409   1427.41577     326.0713     322.9409
   1427.40051     327.1080     324.7092   1427.40051     327.1080     324.7092
   1427.38525     329.6156     326.2609   1427.38525     329.6156     326.2609
   1427.37000     330.7811     328.5311   1427.37000     330.7811     328.5311
   1427.35474     332.7626     330.0624   1427.35474     332.7626     330.0624
   1427.33948     334.3561     331.7658   1427.33948     334.3561     331.7658
   1427.32422     336.4024     334.0620   1427.32422     336.4024     334.0620
   1427.30896     337.9402     335.8965   1427.30896     337.9402     335.8965
   1427.29370     339.5660     337.3733   1427.29370     339.5660     337.3733
   1427.27844     341.7829     339.7122   1427.27844     341.7829     339.7122
   1427.26318     343.6256     341.6010   1427.26318     343.6256     341.6010
   1427.24792     345.1666     343.5718   1427.24792     345.1666     343.5718
   1427.23267     346.8289     345.6968   1427.23267     346.8289     345.6968
   1427.21741     349.0987     347.6572   1427.21741     349.0987     347.6572
   1427.20215     351.2476     349.6042   1427.20215     351.2476     349.6042
   1427.18689     352.8372     351.3490   1427.18689     352.8372     351.3490
   1427.17163     355.2643     353.8832   1427.17163     355.2643     353.8832
   1427.15637     356.9333     356.1295   1427.15637     356.9333     356.1295
   1427.14111     359.3943     358.5523   1427.14111     359.3943     358.5523
   1427.12585     361.3322     359.9915   1427.12585     361.3322     359.9915
   1427.11060     363.4283     362.6801   1427.11060     363.4283     362.6801
   1427.09534     366.1030     364.3450   1427.09534     366.1030     364.3450
   1427.08008     368.2718     366.4832   1427.08008     368.2718     366.4832
   1427.06482     369.7477     368.6075   1427.06482     369.7477     368.6075
   1427.04956     372.0360     371.0513   1427.04956     372.0360     371.0513
   1427.03430     374.5005     372.8862   1427.03430     374.5005     372.8862
   1427.01904     377.0698     375.6646   1427.01904     377.0698     375.6646
   1427.00378     379.1140     377.5564   1427.00378     379.1140     377.5564
   1426.98853     381.4995     379.7929   1426.98853     381.4995     379.7929
   1426.97327     383.1959     382.1461   1426.97327     383.1959     382.1461
   1426.95801     385.5724     384.4046   1426.95801     385.5724     384.4046
   1426.94275     388.3687     387.1978   1426.94275     388.3687     387.1978
   1426.92749     390.1992     388.9203   1426.92749     390.1992     388.9203
   1426.91223     393.2756     391.4964   1426.91223     393.2756     391.4964
   1426.89697     395.4296     393.9953   1426.89697     395.4296     393.9953
   1426.88171     397.8946     395.3523   1426.88171     397.8946     395.3523
   1426.86646     401.0237     398.4791   1426.86646     401.0237     398.4791
   1426.85120     402.2938     400.7144   1426.85120     402.2938     400.7144
   1426.83594     405.5636     403.1329   1426.83594     405.5636     403.1329
   1426.82068     407.9579     405.0096   1426.82068     407.9579     405.0096
   1426.80542     409.8815     407.7439   1426.80542     409.8815     407.7439
   1426.79016     413.4048     409.7880   1426.79016     413.4048     409.7880
   1426.77490     415.0072     412.0732   1426.77490     415.0072     412.0732
   1426.75964     417.8557     414.6744   1426.75964     417.8557     414.6744
   1426.74438     420.1732     417.3417   1426.74438     420.1732     417.3417
   1426.72913     422.2664     418.3604   1426.72913     422.2664     418.3604
   1426.71387     425.0677     421.4134   1426.71387     425.0677     421.4134
   1426.69861     427.0728     423.5746   1426.69861     427.0728     423.5746
   1426.68335     430.0951     425.3486   1426.68335     430.0951     425.3486
   1426.66809     432.8600     428.4647   1426.66809     432.8600     428.4647
   1426.65283     435.2126     430.7569   1426.65283     435.2126     430.7569
   1426.63757     437.4698     433.0553   1426.63757     437.4698     433.0553
   1426.62231     444.8071     435.9240   1426.62231     444.8071     435.9240
   1426.60706     442.9278     437.0831   1426.60706     442.9278     437.0831
   1426.59180     445.3489     440.1982   1426.59180     445.3489     440.1982
   1426.57654     447.0856     442.1255   1426.57654     447.0856     442.1255
   1426.56128     449.7679     443.9502   1426.56128     449.7679     443.9502
   1426.54602     452.3121     446.0174   1426.54602     452.3121     446.0174
   1426.53076     454.5784     448.6492   1426.53076     454.5784     448.6492
   1426.51550     456.8971     450.7701   1426.51550     456.8971     450.7701
   1426.50024     459.4437     451.9992   1426.50024     459.4437     451.9992
   1426.48499     461.7977     455.1796   1426.48499     461.7977     455.1796
   1426.46973     464.3080     456.9960   1426.46973     464.3080     456.9960
   1426.45447     465.7495     458.8239   1426.45447     465.7495     458.8239
   1426.43921     468.5228     461.7233   1426.43921     468.5228     461.7233
   1426.42395     471.2845     463.0490   1426.42395     471.2845     463.0490
   1426.40869     473.7554     465.7411   1426.40869     473.7554     465.7411
   1426.39343     476.3027     468.2176   1426.39343     476.3027     468.2176
   1426.37817     478.8672     469.6927   1426.37817     478.8672     469.6927
   1426.36292     481.2882     472.3000   1426.36292     481.2882     472.3000
   1426.34766     483.4178     473.8247   1426.34766     483.4178     473.8247
   1426.33240     485.9471     475.6008   1426.33240     485.9471     475.6008
   1426.31714     488.1115     478.4241   1426.31714     488.1115     478.4241
   1426.30188     490.6396     480.3078   1426.30188     490.6396     480.3078
   1426.28662     491.9523     482.6133   1426.28662     491.9523     482.6133
   1426.27136     494.7729     484.6714   1426.27136     494.7729     484.6714
   1426.25610     497.4758     485.9394   1426.25610     497.4758     485.9394
   1426.24084     499.5459     487.7978   1426.24084     499.5459     487.7978
   1426.22559     501.9234     490.4872   1426.22559     501.9234     490.4872
   1426.21033     503.4529     491.2874   1426.21033     503.4529     491.2874
   1426.19507     505.8812     493.7285   1426.19507     505.8812     493.7285
   1426.17981     508.5304     496.3181   1426.17981     508.5304     496.3181
   1426.16455     510.6872     497.1054   1426.16455     510.6872     497.1054
   1426.14929     512.6793     499.4708   1426.14929     512.6793     499.4708
   1426.13403     515.1649     501.2609   1426.13403     515.1649     501.2609
   1426.11877     517.1685     503.6515   1426.11877     517.1685     503.6515
   1426.10352     517.9596     505.5235   1426.10352     517.9596     505.5235
   1426.08826     519.6452     506.6733   1426.08826     519.6452     506.6733
   1426.07300     522.5769     508.7729   1426.07300     522.5769     508.7729
   1426.05774     525.3969     510.3737   1426.05774     525.3969     510.3737
   1426.04248     526.8300     511.6221   1426.04248     526.8300     511.6221
   1426.02722     528.7042     514.0404   1426.02722     528.7042     514.0404
   1426.01196     530.7465     515.5491   1426.01196     530.7465     515.5491
   1425.99670     532.8633     516.1556   1425.99670     532.8633     516.1556
   1425.98145     535.2943     518.7770   1425.98145     535.2943     518.7770
   1425.96619     536.4217     520.4040   1425.96619     536.4217     520.4040
   1425.95093     538.1442     521.5690   1425.95093     538.1442     521.5690
   1425.93567     539.6646     523.3218   1425.93567     539.6646     523.3218
   1425.92041     541.8030     524.6011   1425.92041     541.8030     524.6011
   1425.90515     543.0947     526.5912   1425.90515     543.0947     526.5912
   1425.88989     545.2649     529.2704   1425.88989     545.2649     529.2704
   1425.87463     546.2211     529.5381   1425.87463     546.2211     529.5381
   1425.85938     548.6924     531.2665   1425.85938     548.6924     531.2665
   1425.84412     550.3342     533.4717   1425.84412     550.3342     533.4717
   1425.82886     552.0699     535.0625   1425.82886     552.0699     535.0625
   1425.81360     553.4476     535.9520   1425.81360     553.4476     535.9520
   1425.79834     555.2537     537.4608   1425.79834     555.2537     537.4608
   1425.78308     556.1565     539.4025   1425.78308     556.1565     539.4025
   1425.76782     558.4071     540.5925   1425.76782     558.4071     540.5925
   1425.75256     559.4697     542.3897   1425.75256     559.4697     542.3897
   1425.73730     561.3203     543.0934   1425.73730     561.3203     543.0934
   1425.72205     562.7514     544.7349   1425.72205     562.7514     544.7349
   1425.70679     563.1116     546.2919   1425.70679     563.1116     546.2919
   1425.69153     565.5323     546.5400   1425.69153     565.5323     546.5400
   1425.67627     567.2231     548.6329   1425.67627     567.2231     548.6329
   1425.66101     567.5449     550.2521   1425.66101     567.5449     550.2521
   1425.64575     569.6843     551.7451   1425.64575     569.6843     551.7451
   1425.63049     571.5169     552.5632   1425.63049     571.5169     552.5632
   1425.61523     572.3596     553.9111   1425.61523     572.3596     553.9111
   1425.59998     573.9184     555.5088   1425.59998     573.9184     555.5088
   1425.58472     574.0403     557.4473   1425.58472     574.0403     557.4473
   1425.56946     575.7945     558.4888   1425.56946     575.7945     558.4888
   1425.55420     576.8887     559.0765   1425.55420     576.8887     559.0765
   1425.53894     577.9202     559.7562   1425.53894     577.9202     559.7562
   1425.52368     579.6348     561.1474   1425.52368     579.6348     561.1474
   1425.50842     579.9332     562.9119   1425.50842     579.9332     562.9119
   1425.49316     581.4203     564.8577   1425.49316     581.4203     564.8577
   1425.47791     583.4009     566.1141   1425.47791     583.4009     566.1141
   1425.46265     583.5056     565.6927   1425.46265     583.5056     565.6927
   1425.44739     583.9083     567.4733   1425.44739     583.9083     567.4733
   1425.43213     585.4630     568.6151   1425.43213     585.4630     568.6151
   1425.41687     587.0135     570.6465   1425.41687     587.0135     570.6465
   1425.40161     587.5159     570.7645   1425.40161     587.5159     570.7645
   1425.38635     588.8222     572.0677   1425.38635     588.8222     572.0677
   1425.37109     589.0393     573.9313   1425.37109     589.0393     573.9313
   1425.35583     590.7830     574.5134   1425.35583     590.7830     574.5134
   1425.34058     590.8270     575.4292   1425.34058     590.8270     575.4292
   1425.32532     591.0065     575.2798   1425.32532     591.0065     575.2798
   1425.31006     591.8146     577.6127   1425.31006     591.8146     577.6127
   1425.29480     593.9252     578.5932   1425.29480     593.9252     578.5932
   1425.27954     593.6562     579.6797   1425.27954     593.6562     579.6797
   1425.26428     594.4919     580.2130   1425.26428     594.4919     580.2130
   1425.24902     595.8630     581.1451   1425.24902     595.8630     581.1451
   1425.23376     596.0251     582.2659   1425.23376     596.0251     582.2659
   1425.21851     597.4919     583.9125   1425.21851     597.4919     583.9125
   1425.20325     597.5515     584.4402   1425.20325     597.5515     584.4402
   1425.18799     597.9572     585.8178   1425.18799     597.9572     585.8178
   1425.17273     599.0103     586.0167   1425.17273     599.0103     586.0167
   1425.15747     599.2271     587.9512   1425.15747     599.2271     587.9512
   1425.14221     599.4786     588.3751   1425.14221     599.4786     588.3751
   1425.12695     600.8538     589.0719   1425.12695     600.8538     589.0719
   1425.11169     601.2135     591.0850   1425.11169     601.2135     591.0850
   1425.09644     600.8185     590.9704   1425.09644     600.8185     590.9704
   1425.08118     602.6741     592.1068   1425.08118     602.6741     592.1068
   1425.06592     601.8115     593.0312   1425.06592     601.8115     593.0312
   1425.05066     602.9235     593.0075   1425.05066     602.9235     593.0075
   1425.03540     602.4166     594.3494   1425.03540     602.4166     594.3494
   1425.02014     603.5536     595.1816   1425.02014     603.5536     595.1816
   1425.00488     604.5510     596.3485   1425.00488     604.5510     596.3485
   1424.98962     604.8387     597.2133   1424.98962     604.8387     597.2133
   1424.97437     604.9353     597.4539   1424.97437     604.9353     597.4539
   1424.95911     605.6046     599.5761   1424.95911     605.6046     599.5761
   1424.94385     605.7570     599.4142   1424.94385     605.7570     599.4142
   1424.92859     606.1772     599.8322   1424.92859     606.1772     599.8322
   1424.91333     606.0354     601.3419   1424.91333     606.0354     601.3419
   1424.89807     605.8018     602.5623   1424.89807     605.8018     602.5623
   1424.88281     606.9020     602.4084   1424.88281     606.9020     602.4084
   1424.86755     605.9170     602.5990   1424.86755     605.9170     602.5990
   1424.85229     607.1740     603.6107   1424.85229     607.1740     603.6107
   1424.83704     607.7828     605.0812   1424.83704     607.7828     605.0812
   1424.82178     607.1470     605.6873   1424.82178     607.1470     605.6873
   1424.80652     607.5139     606.6797   1424.80652     607.5139     606.6797
   1424.79126     607.8435     605.1858   1424.79126     607.8435     605.1858
   1424.77600     608.0491     607.0064   1424.77600     608.0491     607.0064
   1424.76074     607.5875     608.3830   1424.76074     607.5875     608.3830
   1424.74548     609.6649     609.3052   1424.74548     609.6649     609.3052
   1424.73022     607.8884     609.9557   1424.73022     607.8884     609.9557
   1424.71497     608.4490     611.0596   1424.71497     608.4490     611.0596
   1424.69971     607.8921     610.6057   1424.69971     607.8921     610.6057
   1424.68445     608.2659     611.4108   1424.68445     608.2659     611.4108
   1424.66919     608.0246     611.3821   1424.66919     608.0246     611.3821
   1424.65393     609.1620     613.3285   1424.65393     609.1620     613.3285
   1424.63867     609.7397     614.2576   1424.63867     609.7397     614.2576
   1424.62341     608.6816     613.3525   1424.62341     608.6816     613.3525
   1424.60815     608.5316     615.8809   1424.60815     608.5316     615.8809
   1424.59290     607.8144     615.4850   1424.59290     607.8144     615.4850
   1424.57764     608.0614     615.4091   1424.57764     608.0614     615.4091
   1424.56238     608.3889     616.6247   1424.56238     608.3889     616.6247
   1424.54712     607.7791     616.6887   1424.54712     607.7791     616.6887
   1424.53186     608.4142     617.0770   1424.53186     608.4142     617.0770
   1424.51660     608.4089     618.8287   1424.51660     608.4089     618.8287
   1424.50134     607.5642     619.4275   1424.50134     607.5642     619.4275
   1424.48608     607.2800     618.8990   1424.48608     607.2800     618.8990
   1424.47083     607.4824     619.7398   1424.47083     607.4824     619.7398
   1424.45557     607.8207     620.4117   1424.45557     607.8207     620.4117
   1424.44031     608.0732     621.1680   1424.44031     608.0732     621.1680
   1424.42505     608.3614     622.1487   1424.42505     608.3614     622.1487
   1424.40979     607.5135     622.1619   1424.40979     607.5135     622.1619
   1424.39453     607.7620     623.3969   1424.39453     607.7620     623.3969
   1424.37927     607.6650     623.5823   1424.37927     607.6650     623.5823
   1424.36401     607.4739     623.9006   1424.36401     607.4739     623.9006
   1424.34875     607.5989     624.4288   1424.34875     607.5989     624.4288
   1424.33350     607.5310     624.0609   1424.33350     607.5310     624.0609
   1424.31824     606.7963     624.9046   1424.31824     606.7963     624.9046
   1424.30298     606.9568     625.6840   1424.30298     606.9568     625.6840
   1424.28772     606.4930     627.1088   1424.28772     606.4930     627.1088
   1424.27246     605.6605     627.2754   1424.27246     605.6605     627.2754
   1424.25720     606.7720     626.9171   1424.25720     606.7720     626.9171
   1424.24194     607.3029     627.9507   1424.24194     607.3029     627.9507
   1424.22668     605.9099     628.5244   1424.22668     605.9099     628.5244
   1424.21143     605.0534     629.0043   1424.21143     605.0534     629.0043
   1424.19617     605.9305     628.0232   1424.19617     605.9305     628.0232
   1424.18091     605.7978     630.3157   1424.18091     605.7978     630.3157
   1424.16565     605.2419     629.9368   1424.16565     605.2419     629.9368
   1424.15039     605.8754     630.0673   1424.15039     605.8754     630.0673
   1424.13513     605.6357     630.3154   1424.13513     605.6357     630.3154
   1424.11987     605.2054     630.1586   1424.11987     605.2054     630.1586
   1424.10461     604.0936     632.1892   1424.10461     604.0936     632.1892
   1424.08936     604.6458     632.5225   1424.08936     604.6458     632.5225
   1424.07410     604.6081     631.9047   1424.07410     604.6081     631.9047
   1424.05884     604.2916     632.7543   1424.05884     604.2916     632.7543
   1424.04358     603.1287     632.4938   1424.04358     603.1287     632.4938
   1424.02832     603.4720     632.6260   1424.02832     603.4720     632.6260
   1424.01306     602.8763     633.5257   1424.01306     602.8763     633.5257
   1423.99780     602.7225     633.5040   1423.99780     602.7225     633.5040
   1423.98254     602.4052     633.8658   1423.98254     602.4052     633.8658
   1423.96729     602.0931     634.6733   1423.96729     602.0931     634.6733
   1423.95203     602.7426     634.9020   1423.95203     602.7426     634.9020
   1423.93677     602.6204     635.6497   1423.93677     602.6204     635.6497
   1423.92151     602.5906     635.8300   1423.92151     602.5906     635.8300
   1423.90625     600.9832     636.0031   1423.90625     600.9832     636.0031
   1423.89099     602.5131     635.4470   1423.89099     602.5131     635.4470
   1423.87573     601.0823     636.2172   1423.87573     601.0823     636.2172
   1423.86047     600.1531     637.1071   1423.86047     600.1531     637.1071
   1423.84521     600.6755     636.7849   1423.84521     600.6755     636.7849
   1423.82996     600.2226     636.8480   1423.82996     600.2226     636.8480
   1423.81470     599.3758     637.9150   1423.81470     599.3758     637.9150
   1423.79944     600.2099     637.0853   1423.79944     600.2099     637.0853
   1423.78418     599.5519     638.9167   1423.78418     599.5519     638.9167
   1423.76892     599.4499     638.9616   1423.76892     599.4499     638.9616
   1423.75366     599.4999     638.3670   1423.75366     599.4999     638.3670
   1423.73840     599.1083     639.1334   1423.73840     599.1083     639.1334
   1423.72314     598.8762     638.5532   1423.72314     598.8762     638.5532
   1423.70789     597.9169     638.4545   1423.70789     597.9169     638.4545
   1423.69263     598.1865     639.5324   1423.69263     598.1865     639.5324
   1423.67737     598.2759     640.0510   1423.67737     598.2759     640.0510
   1423.66211     598.3144     639.4470   1423.66211     598.3144     639.4470
   1423.64685     597.7083     640.3551   1423.64685     597.7083     640.3551
   1423.63159     597.5847     638.9847   1423.63159     597.5847     638.9847
   1423.61633     597.1621     640.5869   1423.61633     597.1621     640.5869
   1423.60107     596.3902     640.6636   1423.60107     596.3902     640.6636
   1423.58582     597.0026     640.4748   1423.58582     597.0026     640.4748
   1423.57056     596.8016     639.9808   1423.57056     596.8016     639.9808
   1423.55530     596.2913     641.3073   1423.55530     596.2913     641.3073
   1423.54004     596.3127     639.7855   1423.54004     596.3127     639.7855
   1423.52478     595.6228     639.8819   1423.52478     595.6228     639.8819
   1423.50952     594.8306     640.8002   1423.50952     594.8306     640.8002
   1423.49426     595.2581     640.5825   1423.49426     595.2581     640.5825
   1423.47900     595.1884     640.2950   1423.47900     595.1884     640.2950
   1423.46375     595.3829     640.7661   1423.46375     595.3829     640.7661
   1423.44849     593.6332     640.0851   1423.44849     593.6332     640.0851
   1423.43323     594.7439     641.7834   1423.43323     594.7439     641.7834
   1423.41797     594.1597     641.0403   1423.41797     594.1597     641.0403
   1423.40271     592.9763     641.4552   1423.40271     592.9763     641.4552
   1423.38745     593.2820     640.5292   1423.38745     593.2820     640.5292
   1423.37219     593.6049     641.5226   1423.37219     593.6049     641.5226
   1423.35693     593.5886     639.6380   1423.35693     593.5886     639.6380
   1423.34167     593.4039     640.6539   1423.34167     593.4039     640.6539
   1423.32642     592.4992     639.9852   1423.32642     592.4992     639.9852
   1423.31116     592.2082     639.6945   1423.31116     592.2082     639.6945
   1423.29590     591.8788     639.6494   1423.29590     591.8788     639.6494
   1423.28064     591.9753     639.8787   1423.28064     591.9753     639.8787
   1423.26538     592.3530     639.6963   1423.26538     592.3530     639.6963
   1423.25012     592.1176     637.7430   1423.25012     592.1176     637.7430
   1423.23486     591.0519     639.8755   1423.23486     591.0519     639.8755
   1423.21960     590.5935     638.5160   1423.21960     590.5935     638.5160
   1423.20435     590.1470     638.5313   1423.20435     590.1470     638.5313
   1423.18909     591.0455     639.1404   1423.18909     591.0455     639.1404
   1423.17383     590.7017     637.7035   1423.17383     590.7017     637.7035
   1423.15857     590.3289     638.0480   1423.15857     590.3289     638.0480
   1423.14331     590.3131     638.0787   1423.14331     590.3131     638.0787
   1423.12805     589.6267     638.1588   1423.12805     589.6267     638.1588
   1423.11279     589.1354     637.8790   1423.11279     589.1354     637.8790
   1423.09753     589.5870     637.0178   1423.09753     589.5870     637.0178
   1423.08228     589.9667     636.0944   1423.08228     589.9667     636.0944
   1423.06702     588.1904     636.5304   1423.06702     588.1904     636.5304
   1423.05176     588.3043     635.1079   1423.05176     588.3043     635.1079
   1423.03650     587.5366     634.8990   1423.03650     587.5366     634.8990
   1423.02124     588.3997     634.4490   1423.02124     588.3997     634.4490
   1423.00598     587.8167     634.6618   1423.00598     587.8167     634.6618
   1422.99072     588.0805     634.7464   1422.99072     588.0805     634.7464
   1422.97546     588.2245     633.9299   1422.97546     588.2245     633.9299
   1422.96021     587.8336     633.5355   1422.96021     587.8336     633.5355
   1422.94495     587.7130     633.8273   1422.94495     587.7130     633.8273
   1422.92969     587.0078     633.5958   1422.92969     587.0078     633.5958
   1422.91443     586.5742     632.7001   1422.91443     586.5742     632.7001
   1422.89917     586.0319     631.2552   1422.89917     586.0319     631.2552
   1422.88391     587.0946     631.9412   1422.88391     587.0946     631.9412
   1422.86865     586.1341     631.7061   1422.86865     586.1341     631.7061
   1422.85339     586.7465     631.0565   1422.85339     586.7465     631.0565
   1422.83813     586.0793     629.5724   1422.83813     586.0793     629.5724
   1422.82288     584.4931     628.9005   1422.82288     584.4931     628.9005
   1422.80762     586.3015     628.3851   1422.80762     586.3015     628.3851
   1422.79236     585.5935     629.3964   1422.79236     585.5935     629.3964
   1422.77710     586.5728     626.9825   1422.77710     586.5728     626.9825
   1422.76184     586.2354     627.9008   1422.76184     586.2354     627.9008
   1422.74658     585.6853     626.5292   1422.74658     585.6853     626.5292
   1422.73132     585.1119     626.5026   1422.73132     585.1119     626.5026
   1422.71606     584.2089     625.1766   1422.71606     584.2089     625.1766
   1422.70081     583.9659     624.6431   1422.70081     583.9659     624.6431
   1422.68555     583.9274     623.5698   1422.68555     583.9274     623.5698
   1422.67029     584.4373     622.7272   1422.67029     584.4373     622.7272
   1422.65503     582.6869     622.9614   1422.65503     582.6869     622.9614
   1422.63977     583.7800     622.8674   1422.63977     583.7800     622.8674
   1422.62451     583.2198     621.0635   1422.62451     583.2198     621.0635
   1422.60925     583.0867     620.6105   1422.60925     583.0867     620.6105
   1422.59399     582.8680     619.5166   1422.59399     582.8680     619.5166
   1422.57874     581.5120     618.7811   1422.57874     581.5120     618.7811
   1422.56348     582.1804     618.2083   1422.56348     582.1804     618.2083
   1422.54822     582.0632     617.6647   1422.54822     582.0632     617.6647
   1422.53296     581.8347     617.2358   1422.53296     581.8347     617.2358
   1422.51770     581.3500     615.6303   1422.51770     581.3500     615.6303
   1422.50244     582.1521     614.8509   1422.50244     582.1521     614.8509
   1422.48718     581.5591     613.4567   1422.48718     581.5591     613.4567
   1422.47192     580.4297     612.9789   1422.47192     580.4297     612.9789
   1422.45667     581.3625     611.6131   1422.45667     581.3625     611.6131
   1422.44141     581.7495     611.8578   1422.44141     581.7495     611.8578
   1422.42615     580.3560     610.3954   1422.42615     580.3560     610.3954
   1422.41089     581.9661     608.6215   1422.41089     581.9661     608.6215
   1422.39563     579.5402     607.7821   1422.39563     579.5402     607.7821
   1422.38037     581.3530     606.6441   1422.38037     581.3530     606.6441
   1422.36511     579.6249     607.0180   1422.36511     579.6249     607.0180
   1422.34985     580.1023     606.7865   1422.34985     580.1023     606.7865
   1422.33459     580.3984     605.7242   1422.33459     580.3984     605.7242
   1422.31934     579.5216     604.2886   1422.31934     579.5216     604.2886
   1422.30408     578.3489     602.1237   1422.30408     578.3489     602.1237
   1422.28882     580.0404     602.7193   1422.28882     580.0404     602.7193
   1422.27356     578.4099     600.1087   1422.27356     578.4099     600.1087
   1422.25830     578.7701     600.4963   1422.25830     578.7701     600.4963
   1422.24304     578.6346     600.0690   1422.24304     578.6346     600.0690
   1422.22778     578.7792     598.9388   1422.22778     578.7792     598.9388
   1422.21252     578.0078     597.6318   1422.21252     578.0078     597.6318
   1422.19727     577.3291     596.1502   1422.19727     577.3291     596.1502
   1422.18201     578.0811     595.9262   1422.18201     578.0811     595.9262
   1422.16675     578.7045     594.7213   1422.16675     578.7045     594.7213
   1422.15149     577.3091     592.8852   1422.15149     577.3091     592.8852
   1422.13623     576.1087     592.0391   1422.13623     576.1087     592.0391
   1422.12097     576.4074     589.9889   1422.12097     576.4074     589.9889
   1422.10571     576.6173     589.7402   1422.10571     576.6173     589.7402
   1422.09045     576.8515     588.7523   1422.09045     576.8515     588.7523
   1422.07520     576.5338     586.7136   1422.07520     576.5338     586.7136
   1422.05994     576.3627     585.6440   1422.05994     576.3627     585.6440
   1422.04468     575.4318     585.6025   1422.04468     575.4318     585.6025
   1422.02942     575.8167     583.6059   1422.02942     575.8167     583.6059
   1422.01416     575.5066     582.7216   1422.01416     575.5066     582.7216
   1421.99890     574.8225     581.6174   1421.99890     574.8225     581.6174
   1421.98364     575.4825     581.3047   1421.98364     575.4825     581.3047
   1421.96838     575.2867     579.6205   1421.96838     575.2867     579.6205
   1421.95312     575.6174     577.5466   1421.95312     575.6174     577.5466
   1421.93787     573.6560     576.6760   1421.93787     573.6560     576.6760
   1421.92261     574.5004     576.1390   1421.92261     574.5004     576.1390
   1421.90735     574.0458     574.5797   1421.90735     574.0458     574.5797
   1421.89209     573.4610     573.3907   1421.89209     573.4610     573.3907
   1421.87683     573.5447     570.9320   1421.87683     573.5447     570.9320
   1421.86157     572.8744     569.9232   1421.86157     572.8744     569.9232
   1421.84631     573.4979     569.6326   1421.84631     573.4979     569.6326
   1421.83105     572.9962     568.6236   1421.83105     572.9962     568.6236
   1421.81580     572.8109     565.8516   1421.81580     572.8109     565.8516
   1421.80054     572.9140     565.2002   1421.80054     572.9140     565.2002
   1421.78528     572.9874     563.9406   1421.78528     572.9874     563.9406
   1421.77002     571.8738     563.4189   1421.77002     571.8738     563.4189
   1421.75476     571.8390     562.1990   1421.75476     571.8390     562.1990
   1421.73950     572.0192     560.9052   1421.73950     572.0192     560.9052
   1421.72424     571.9163     558.3530   1421.72424     571.9163     558.3530
   1421.70898     571.5143     557.3546   1421.70898     571.5143     557.3546
   1421.69373     571.5007     556.0842   1421.69373     571.5007     556.0842
   1421.67847     571.2864     555.8669   1421.67847     571.2864     555.8669
   1421.66321     570.8106     554.5373   1421.66321     570.8106     554.5373
   1421.64795     571.2193     553.3484   1421.64795     571.2193     553.3484
   1421.63269     570.8635     551.1509   1421.63269     570.8635     551.1509
   1421.61743     570.6137     550.7133   1421.61743     570.6137     550.7133
   1421.60217     570.6061     548.7608   1421.60217     570.6061     548.7608
   1421.58691     570.0988     547.6719   1421.58691     570.0988     547.6719
   1421.57166     570.1453     546.5641   1421.57166     570.1453     546.5641
   1421.55640     569.7719     545.5208   1421.55640     569.7719     545.5208
   1421.54114     569.6808     543.7418   1421.54114     569.6808     543.7418
   1421.52588     568.6339     542.4349   1421.52588     568.6339     542.4349
   1421.51062     569.2139     541.6395   1421.51062     569.2139     541.6395
   1421.49536     569.2158     539.8577   1421.49536     569.2158     539.8577
   1421.48010     568.4609     538.9568   1421.48010     568.4609     538.9568
   1421.46484     567.2667     536.8060   1421.46484     567.2667     536.8060
   1421.44958     568.4808     536.1014   1421.44958     568.4808     536.1014
   1421.43433     568.9581     535.4828   1421.43433     568.9581     535.4828
   1421.41907     569.0051     532.7903   1421.41907     569.0051     532.7903
   1421.40381     568.2633     531.1918   1421.40381     568.2633     531.1918
   1421.38855     568.5780     531.1796   1421.38855     568.5780     531.1796
   1421.37329     567.7476     529.6202   1421.37329     567.7476     529.6202
   1421.35803     566.7289     528.4999   1421.35803     566.7289     528.4999
   1421.34277     567.5055     527.9322   1421.34277     567.5055     527.9322
   1421.32751     567.5531     526.5477   1421.32751     567.5531     526.5477
   1421.31226     567.0013     524.6172   1421.31226     567.0013     524.6172
   1421.29700     567.3919     524.4574   1421.29700     567.3919     524.4574
   1421.28174     568.2366     522.5893   1421.28174     568.2366     522.5893
   1421.26648     568.3097     522.4675   1421.26648     568.3097     522.4675
   1421.25122     567.4778     521.0954   1421.25122     567.4778     521.0954
   1421.23596     569.2729     521.1935   1421.23596     569.2729     521.1935
   1421.22070     570.1969     520.0152   1421.22070     570.1969     520.0152
   1421.20544     570.4144     520.0258   1421.20544     570.4144     520.0258
   1421.19019     571.2150     519.5896   1421.19019     571.2150     519.5896
   1421.17493     571.5933     518.3688   1421.17493     571.5933     518.3688
   1421.15967     572.9099     518.0101   1421.15967     572.9099     518.0101
   1421.14441     572.9838     518.0031   1421.14441     572.9838     518.0031
   1421.12915     575.1486     518.0634   1421.12915     575.1486     518.0634
   1421.11389     577.3510     519.8247   1421.11389     577.3510     519.8247
   1421.09863     582.1873     521.9117   1421.09863     582.1873     521.9117
   1421.08337     589.4691     528.7048   1421.08337     589.4691     528.7048
   1421.06812     597.6934     534.1976   1421.06812     597.6934     534.1976
   1421.05286     609.1241     542.7679   1421.05286     609.1241     542.7679
   1421.03760     617.8000     548.8477   1421.03760     617.8000     548.8477
   1421.02234     632.1525     561.8489   1421.02234     632.1525     561.8489
   1421.00708     665.8864     588.8710   1421.00708     665.8864     588.8710
   1420.99182     754.2600     662.6488   1420.99182     754.2600     662.6488
   1420.97656     839.5709     732.8380   1420.97656     839.5709     732.8380
   1420.96130     862.4359     753.8946   1420.96130     862.4359     753.8946
   1420.94604     842.3339     732.5123   1420.94604     842.3339     732.5123
   1420.93079     761.9218     664.7784   1420.93079     761.9218     664.7784
   1420.91553     728.4856     634.5563   1420.91553     728.4856     634.5563
   1420.90027     757.3021     657.1910   1420.90027     757.3021     657.1910
   1420.88501     805.0276     697.0506   1420.88501     805.0276     697.0506
   1420.86975     804.2914     695.7571   1420.86975     804.2914     695.7571
   1420.85449     793.8582     684.6879   1420.85449     793.8582     684.6879
   1420.83923     815.2747     701.2164   1420.83923     815.2747     701.2164
   1420.82397     849.7953     732.4759   1420.82397     849.7953     732.4759
   1420.80872     904.0321     775.1647   1420.80872     904.0321     775.1647
   1420.79346    1032.5681     880.7161   1420.79346    1032.5681     880.7161
   1420.77820    1331.6207    1128.0663   1420.77820    1331.6207    1128.0663
   1420.76294    1595.1519    1345.0254   1420.76294    1595.1519    1345.0254
   1420.74768    1669.1627    1404.8040   1420.74768    1669.1627    1404.8040
   1420.73242    1708.5386    1434.0020   1420.73242    1708.5386    1434.0020
   1420.71716    1613.2400    1353.3348   1420.71716    1613.2400    1353.3348
   1420.70190    1323.6227    1110.3605   1420.70190    1323.6227    1110.3605
   1420.68665    1084.6230     910.6324   1420.68665    1084.6230     910.6324
   1420.67139     944.5854     790.2346   1420.67139     944.5854     790.2346
   1420.65613     861.9584     721.9942   1420.65613     861.9584     721.9942
   1420.64087     833.7220     698.0843   1420.64087     833.7220     698.0843
   1420.62561     805.5047     673.4887   1420.62561     805.5047     673.4887
   1420.61035     775.5235     647.2545   1420.61035     775.5235     647.2545
   1420.59509     767.6003     640.2921   1420.59509     767.6003     640.2921
   1420.57983     825.6890     686.6703   1420.57983     825.6890     686.6703
   1420.56458     962.8555     797.1613   1420.56458     962.8555     797.1613
   1420.54932    1171.0455     964.8176   1420.54932    1171.0455     964.8176
   1420.53406    1403.8475    1154.4425   1420.53406    1403.8475    1154.4425
   1420.51880    1648.1604    1346.8130   1420.51880    1648.1604    1346.8130
   1420.50354    1641.6339    1341.6842   1420.50354    1641.6339    1341.6842
   1420.48828    1316.4984    1075.7816   1420.48828    1316.4984    1075.7816
   1420.47302     931.5388     761.5831   1420.47302     931.5388     761.5831
   1420.45776     742.4649     606.8940   1420.45776     742.4649     606.8940
   1420.44250     657.9565     538.5833   1420.44250     657.9565     538.5833
   1420.42725     616.6428     504.9985   1420.42725     616.6428     504.9985
   1420.41199     592.9064     485.3172   1420.41199     592.9064     485.3172
   1420.39673     580.0457     473.5356   1420.39673     580.0457     473.5356
   1420.38147     572.3636     467.1134   1420.38147     572.3636     467.1134
   1420.36621     567.8661     463.0605   1420.36621     567.8661     463.0605
   1420.35095     564.8303     460.1113   1420.35095     564.8303     460.1113
   1420.33569     562.2636     457.9761   1420.33569     562.2636     457.9761
   1420.32043     562.2395     456.5753   1420.32043     562.2395     456.5753
   1420.30518     561.5836     455.5020   1420.30518     561.5836     455.5020
   1420.28992     561.9464     454.7180   1420.28992     561.9464     454.7180
   1420.27466     560.8704     453.5950   1420.27466     560.8704     453.5950
   1420.25940     560.5168     451.2195   1420.25940     560.5168     451.2195
   1420.24414     559.5098     450.0942   1420.24414     559.5098     450.0942
   1420.22888     559.7582     448.9822   1420.22888     559.7582     448.9822
   1420.21362     559.2601     447.1310   1420.21362     559.2601     447.1310
   1420.19836     559.2898     446.5780   1420.19836     559.2898     446.5780
   1420.18311     557.9258     445.5597   1420.18311     557.9258     445.5597
   1420.16785     557.0980     444.2557   1420.16785     557.0980     444.2557
   1420.15259     556.3417     443.5818   1420.15259     556.3417     443.5818
   1420.13733     555.9383     442.5269   1420.13733     555.9383     442.5269
   1420.12207     556.5046     441.2661   1420.12207     556.5046     441.2661
   1420.10681     555.5787     439.8602   1420.10681     555.5787     439.8602
   1420.09155     555.5627     439.6976   1420.09155     555.5627     439.6976
   1420.07629     554.3249     438.6003   1420.07629     554.3249     438.6003
   1420.06104     555.1940     437.8792   1420.06104     555.1940     437.8792
   1420.04578     554.4866     437.0267   1420.04578     554.4866     437.0267
   1420.03052     554.5228     436.5211   1420.03052     554.5228     436.5211
   1420.01526     555.4307     435.9629   1420.01526     555.4307     435.9629
   1420.00000     556.2509     436.7312   1420.00000     556.2509     436.7312
   1419.98474     557.0710     437.4995   1419.98474     557.0710     437.4995
   1419.96948     557.1633     435.3620   1419.96948     557.1633     435.3620
   1419.95422     554.5755     433.2861   1419.95422     554.5755     433.2861
   1419.93896     554.1222     433.0001   1419.93896     554.1222     433.0001
   1419.92371     554.7184     432.1803   1419.92371     554.7184     432.1803
   1419.90845     555.0122     432.0144   1419.90845     555.0122     432.0144
   1419.89319     554.0626     431.0993   1419.89319     554.0626     431.0993
   1419.87793     554.6217     430.5027   1419.87793     554.6217     430.5027
   1419.86267     554.9435     430.0587   1419.86267     554.9435     430.0587
   1419.84741     555.3041     429.6161   1419.84741     555.3041     429.6161
   1419.83215     555.2899     429.0644   1419.83215     555.2899     429.0644
   1419.81689     554.8605     428.3521   1419.81689     554.8605     428.3521
   1419.80164     555.0255     428.1263   1419.80164     555.0255     428.1263
   1419.78638     555.3036     427.8654   1419.78638     555.3036     427.8654
   1419.77112     555.3990     428.3257   1419.77112     555.3990     428.3257
   1419.75586     555.3950     427.8268   1419.75586     555.3950     427.8268
   1419.74060     556.0920     427.3305   1419.74060     556.0920     427.3305
   1419.72534     555.8479     426.4643   1419.72534     555.8479     426.4643
   1419.71008     555.7589     426.4710   1419.71008     555.7589     426.4710
   1419.69482     556.3816     426.1382   1419.69482     556.3816     426.1382
   1419.67957     556.1483     426.0183   1419.67957     556.1483     426.0183
   1419.66431     557.0748     425.4032   1419.66431     557.0748     425.4032
   1419.64905     556.9099     424.6852   1419.64905     556.9099     424.6852
   1419.63379     557.1415     424.6018   1419.63379     557.1415     424.6018
   1419.61853     556.9932     424.6000   1419.61853     556.9932     424.6000
   1419.60327     557.1224     424.2011   1419.60327     557.1224     424.2011
   1419.58801     558.0618     423.8883   1419.58801     558.0618     423.8883
   1419.57275     558.4128     424.1392   1419.57275     558.4128     424.1392
   1419.55750     557.4898     424.0661   1419.55750     557.4898     424.0661
   1419.54224     559.0989     423.5212   1419.54224     559.0989     423.5212
   1419.52698     559.3908     423.5329   1419.52698     559.3908     423.5329
   1419.51172     559.2902     423.5752   1419.51172     559.2902     423.5752
   1419.49646     560.2275     423.4439   1419.49646     560.2275     423.4439
   1419.48120     560.0402     423.3327   1419.48120     560.0402     423.3327
   1419.46594     560.1007     422.7820   1419.46594     560.1007     422.7820
   1419.45068     560.1596     423.4348   1419.45068     560.1596     423.4348
   1419.43542     561.0726     422.6665   1419.43542     561.0726     422.6665
   1419.42017     560.8217     423.0997   1419.42017     560.8217     423.0997
   1419.40491     561.2157     422.7980   1419.40491     561.2157     422.7980
   1419.38965     561.6906     422.7798   1419.38965     561.6906     422.7798
   1419.37439     561.8583     422.9844   1419.37439     561.8583     422.9844
   1419.35913     561.9415     423.1533   1419.35913     561.9415     423.1533
   1419.34387     562.7072     423.2325   1419.34387     562.7072     423.2325
   1419.32861     563.3314     422.5655   1419.32861     563.3314     422.5655
   1419.31335     563.2177     423.4052   1419.31335     563.2177     423.4052
   1419.29810     563.7603     422.7532   1419.29810     563.7603     422.7532
   1419.28284     564.3733     422.9926   1419.28284     564.3733     422.9926
   1419.26758     565.9060     423.8907   1419.26758     565.9060     423.8907
   1419.25232     564.8707     422.3032   1419.25232     564.8707     422.3032
   1419.23706     565.3403     423.1134   1419.23706     565.3403     423.1134
   1419.22180     565.6904     423.3017   1419.22180     565.6904     423.3017
   1419.20654     565.7177     423.1005   1419.20654     565.7177     423.1005
   1419.19128     566.5286     423.9420   1419.19128     566.5286     423.9420
   1419.17603     567.4033     423.5683   1419.17603     567.4033     423.5683
   1419.16077     567.1543     423.7157   1419.16077     567.1543     423.7157
   1419.14551     567.8789     423.5836   1419.14551     567.8789     423.5836
   1419.13025     568.0173     424.2207   1419.13025     568.0173     424.2207
   1419.11499     568.3497     424.0128   1419.11499     568.3497     424.0128
   1419.09973     569.4324     425.0544   1419.09973     569.4324     425.0544
   1419.08447     568.0594     424.5283   1419.08447     568.0594     424.5283
   1419.06921     568.7693     425.2280   1419.06921     568.7693     425.2280
   1419.05396     569.5526     425.2380   1419.05396     569.5526     425.2380
   1419.03870     570.3406     425.4394   1419.03870     570.3406     425.4394
   1419.02344     570.6367     425.7166   1419.02344     570.6367     425.7166
   1419.00818     570.7715     426.1624   1419.00818     570.7715     426.1624
   1418.99292     570.9592     425.8486   1418.99292     570.9592     425.8486
   1418.97766     572.1897     426.4261   1418.97766     572.1897     426.4261
   1418.96240     571.8821     427.1784   1418.96240     571.8821     427.1784
   1418.94714     571.8760     427.0982   1418.94714     571.8760     427.0982
   1418.93188     573.3083     427.7644   1418.93188     573.3083     427.7644
   1418.91663     574.3802     428.1086   1418.91663     574.3802     428.1086
   1418.90137     574.0709     428.9144   1418.90137     574.0709     428.9144
   1418.88611     574.6055     428.7753   1418.88611     574.6055     428.7753
   1418.87085     575.0916     428.8545   1418.87085     575.0916     428.8545
   1418.85559     576.5680     429.5351   1418.85559     576.5680     429.5351
   1418.84033     575.9367     430.3314   1418.84033     575.9367     430.3314
   1418.82507     576.5827     430.3439   1418.82507     576.5827     430.3439
   1418.80981     577.5715     430.9765   1418.80981     577.5715     430.9765
   1418.79456     577.4998     430.7010   1418.79456     577.4998     430.7010
   1418.77930     577.8638     432.0949   1418.77930     577.8638     432.0949
   1418.76404     578.9291     431.8419   1418.76404     578.9291     431.8419
   1418.74878     580.5400     433.7241   1418.74878     580.5400     433.7241
   1418.73352     580.7764     433.9200   1418.73352     580.7764     433.9200
   1418.71826     581.2133     433.7671   1418.71826     581.2133     433.7671
   1418.70300     581.8297     435.3101   1418.70300     581.8297     435.3101
   1418.68774     580.7756     434.8125   1418.68774     580.7756     434.8125
   1418.67249     582.5243     435.6750   1418.67249     582.5243     435.6750
   1418.65723     583.5067     436.4747   1418.65723     583.5067     436.4747
   1418.64197     583.6669     436.5797   1418.64197     583.6669     436.5797
   1418.62671     583.5795     436.9519   1418.62671     583.5795     436.9519
   1418.61145     585.3595     437.9427   1418.61145     585.3595     437.9427
   1418.59619     585.9772     438.5401   1418.59619     585.9772     438.5401
   1418.58093     585.5587     438.9215   1418.58093     585.5587     438.9215
   1418.56567     587.2341     439.6384   1418.56567     587.2341     439.6384
   1418.55042     588.6751     440.1796   1418.55042     588.6751     440.1796
   1418.53516     587.5721     441.6135   1418.53516     587.5721     441.6135
   1418.51990     588.6734     442.1736   1418.51990     588.6734     442.1736
   1418.50464     589.2167     442.2667   1418.50464     589.2167     442.2667
   1418.48938     588.6801     443.7819   1418.48938     588.6801     443.7819
   1418.47412     589.5414     443.7140   1418.47412     589.5414     443.7140
   1418.45886     590.1962     444.5564   1418.45886     590.1962     444.5564
   1418.44360     591.7818     445.2442   1418.44360     591.7818     445.2442
   1418.42834     592.5018     446.9114   1418.42834     592.5018     446.9114
   1418.41309     594.2578     447.6096   1418.41309     594.2578     447.6096
   1418.39783     593.6338     448.1335   1418.39783     593.6338     448.1335
   1418.38257     593.3837     448.9369   1418.38257     593.3837     448.9369
   1418.36731     595.0126     450.2194   1418.36731     595.0126     450.2194
   1418.35205     594.7020     450.0215   1418.35205     594.7020     450.0215
   1418.33679     596.0722     450.7262   1418.33679     596.0722     450.7262
   1418.32153     597.1378     451.9602   1418.32153     597.1378     451.9602
   1418.30627     597.8898     452.3790   1418.30627     597.8898     452.3790
   1418.29102     598.7791     453.5293   1418.29102     598.7791     453.5293
   1418.27576     598.2418     454.6786   1418.27576     598.2418     454.6786
   1418.26050     599.7012     455.2558   1418.26050     599.7012     455.2558
   1418.24524     600.8641     456.5851   1418.24524     600.8641     456.5851
   1418.22998     600.3876     456.9204   1418.22998     600.3876     456.9204
   1418.21472     601.9239     457.3989   1418.21472     601.9239     457.3989
   1418.19946     602.8885     458.6547   1418.19946     602.8885     458.6547
   1418.18420     602.7187     459.5779   1418.18420     602.7187     459.5779
   1418.16895     603.7726     460.0947   1418.16895     603.7726     460.0947
   1418.15369     605.6086     461.8044   1418.15369     605.6086     461.8044
   1418.13843     605.1762     462.5819   1418.13843     605.1762     462.5819
   1418.12317     606.4145     463.7651   1418.12317     606.4145     463.7651
   1418.10791     607.4075     463.9005   1418.10791     607.4075     463.9005
   1418.09265     607.6596     464.8738   1418.09265     607.6596     464.8738
   1418.07739     608.0848     466.2419   1418.07739     608.0848     466.2419
   1418.06213     609.0497     466.9965   1418.06213     609.0497     466.9965
   1418.04688     610.4929     468.3549   1418.04688     610.4929     468.3549
   1418.03162     611.6341     469.1853   1418.03162     611.6341     469.1853
   1418.01636     612.5235     470.4117   1418.01636     612.5235     470.4117
   1418.00110     611.5492     470.4579   1418.00110     611.5492     470.4579
   1417.98584     613.4391     472.2189   1417.98584     613.4391     472.2189
   1417.97058     613.4861     473.2102   1417.97058     613.4861     473.2102
   1417.95532     615.3656     473.5710   1417.95532     615.3656     473.5710
   1417.94006     615.6689     474.4460   1417.94006     615.6689     474.4460
   1417.92480     615.8815     475.9129   1417.92480     615.8815     475.9129
   1417.90955     616.5980     476.9095   1417.90955     616.5980     476.9095
   1417.89429     618.4302     478.4641   1417.89429     618.4302     478.4641
   1417.87903     618.2394     479.0948   1417.87903     618.2394     479.0948
   1417.86377     620.2278     480.3857   1417.86377     620.2278     480.3857
   1417.84851     620.7791     480.4146   1417.84851     620.7791     480.4146
   1417.83325     620.1951     481.6831   1417.83325     620.1951     481.6831
   1417.81799     622.3895     483.4333   1417.81799     622.3895     483.4333
   1417.80273     622.6962     483.6627   1417.80273     622.6962     483.6627
   1417.78748     622.6785     485.6331   1417.78748     622.6785     485.6331
   1417.77222     624.1212     486.8383   1417.77222     624.1212     486.8383
   1417.75696     625.0989     487.5070   1417.75696     625.0989     487.5070
   1417.74170     624.5066     488.4680   1417.74170     624.5066     488.4680
   1417.72644     626.8458     490.1586   1417.72644     626.8458     490.1586
   1417.71118     626.1033     490.7526   1417.71118     626.1033     490.7526
   1417.69592     628.3566     492.7084   1417.69592     628.3566     492.7084
   1417.68066     628.2484     492.8687   1417.68066     628.2484     492.8687
   1417.66541     629.9948     493.5573   1417.66541     629.9948     493.5573
   1417.65015     630.2306     494.8409   1417.65015     630.2306     494.8409
   1417.63489     631.5883     495.9102   1417.63489     631.5883     495.9102
   1417.61963     631.6268     497.8460   1417.61963     631.6268     497.8460
   1417.60437     633.5110     498.7437   1417.60437     633.5110     498.7437
   1417.58911     634.0494     499.3279   1417.58911     634.0494     499.3279
   1417.57385     633.6113     499.6880   1417.57385     633.6113     499.6880
   1417.55859     635.1497     502.2516   1417.55859     635.1497     502.2516
   1417.54333     635.3644     502.7821   1417.54333     635.3644     502.7821
   1417.52808     636.2290     503.4958   1417.52808     636.2290     503.4958
   1417.51282     637.8010     504.1578   1417.51282     637.8010     504.1578
   1417.49756     637.2228     504.9355   1417.49756     637.2228     504.9355
   1417.48230     638.2789     505.8911   1417.48230     638.2789     505.8911
   1417.46704     639.0528     508.0427   1417.46704     639.0528     508.0427
   1417.45178     640.5400     508.3386   1417.45178     640.5400     508.3386
   1417.43652     640.6315     509.1862   1417.43652     640.6315     509.1862
   1417.42126     641.5672     510.9807   1417.42126     641.5672     510.9807
   1417.40601     641.1138     512.0359   1417.40601     641.1138     512.0359
   1417.39075     642.8986     512.7926   1417.39075     642.8986     512.7926
   1417.37549     644.2151     513.5656   1417.37549     644.2151     513.5656
   1417.36023     644.1190     514.2703   1417.36023     644.1190     514.2703
   1417.34497     644.3915     515.6270   1417.34497     644.3915     515.6270
   1417.32971     644.6838     516.3691   1417.32971     644.6838     516.3691
   1417.31445     646.1320     516.7172   1417.31445     646.1320     516.7172
   1417.29919     646.7173     518.6350   1417.29919     646.7173     518.6350
   1417.28394     646.3611     519.3452   1417.28394     646.3611     519.3452
   1417.26868     647.9326     520.1299   1417.26868     647.9326     520.1299
   1417.25342     649.0091     521.5038   1417.25342     649.0091     521.5038
   1417.23816     650.4944     521.7733   1417.23816     650.4944     521.7733
   1417.22290     652.4244     524.1010   1417.22290     652.4244     524.1010
   1417.20764     650.9194     524.3409   1417.20764     650.9194     524.3409
   1417.19238     650.3318     524.3709   1417.19238     650.3318     524.3709
   1417.17712     651.9688     526.2933   1417.17712     651.9688     526.2933
   1417.16187     651.7052     526.3340   1417.16187     651.7052     526.3340
   1417.14661     653.0734     527.9909   1417.14661     653.0734     527.9909
   1417.13135     654.1309     528.7167   1417.13135     654.1309     528.7167
   1417.11609     654.3614     528.7279   1417.11609     654.3614     528.7279
   1417.10083     654.6489     530.1920   1417.10083     654.6489     530.1920
   1417.08557     655.4323     530.4452   1417.08557     655.4323     530.4452
   1417.07031     656.2954     531.6718   1417.07031     656.2954     531.6718
   1417.05505     655.3369     533.7272   1417.05505     655.3369     533.7272
   1417.03979     657.5875     533.0131   1417.03979     657.5875     533.0131
   1417.02454     657.7631     533.1814   1417.02454     657.7631     533.1814
   1417.00928     659.5770     533.9098   1417.00928     659.5770     533.9098
   1416.99402     658.0331     535.6124   1416.99402     658.0331     535.6124
   1416.97876     659.4643     535.8015   1416.97876     659.4643     535.8015
   1416.96350     660.2883     536.5343   1416.96350     660.2883     536.5343
   1416.94824     660.0994     537.0920   1416.94824     660.0994     537.0920
   1416.93298     660.4562     537.9572   1416.93298     660.4562     537.9572
   1416.91772     660.5187     538.8633   1416.91772     660.5187     538.8633
   1416.90247     660.8212     539.0479   1416.90247     660.8212     539.0479
   1416.88721     661.5134     539.0825   1416.88721     661.5134     539.0825
   1416.87195     663.4074     540.2014   1416.87195     663.4074     540.2014
   1416.85669     661.9036     540.3162   1416.85669     661.9036     540.3162
   1416.84143     662.5477     540.7761   1416.84143     662.5477     540.7761
   1416.82617     663.0537     541.5445   1416.82617     663.0537     541.5445
   1416.81091     663.1862     542.2847   1416.81091     663.1862     542.2847
   1416.79565     663.5883     542.8685   1416.79565     663.5883     542.8685
   1416.78040     664.1699     543.4678   1416.78040     664.1699     543.4678
   1416.76514     663.6116     543.3190   1416.76514     663.6116     543.3190
   1416.74988     665.6634     544.0779   1416.74988     665.6634     544.0779
   1416.73462     664.9703     543.1344   1416.73462     664.9703     543.1344
   1416.71936     665.5414     544.4877   1416.71936     665.5414     544.4877
   1416.70410     665.4521     544.4283   1416.70410     665.4521     544.4283
   1416.68884     665.1665     544.9686   1416.68884     665.1665     544.9686
   1416.67358     665.2666     544.8848   1416.67358     665.2666     544.8848
   1416.65833     665.5902     545.1534   1416.65833     665.5902     545.1534
   1416.64307     666.2636     545.7271   1416.64307     666.2636     545.7271
   1416.62781     666.1428     545.2329   1416.62781     666.1428     545.2329
   1416.61255     665.8297     545.3654   1416.61255     665.8297     545.3654
   1416.59729     665.5221     545.8386   1416.59729     665.5221     545.8386
   1416.58203     665.9902     546.0751   1416.58203     665.9902     546.0751
   1416.56677     665.7343     546.1644   1416.56677     665.7343     546.1644
   1416.55151     666.8405     546.5391   1416.55151     666.8405     546.5391
   1416.53625     665.9788     546.4452   1416.53625     665.9788     546.4452
   1416.52100     666.2763     546.6127   1416.52100     666.2763     546.6127
   1416.50574     666.8889     546.1587   1416.50574     666.8889     546.1587
   1416.49048     666.1692     546.6102   1416.49048     666.1692     546.6102
   1416.47522     666.9686     545.5668   1416.47522     666.9686     545.5668
   1416.45996     665.7006     545.0809   1416.45996     665.7006     545.0809
   1416.44470     666.4579     545.8490   1416.44470     666.4579     545.8490
   1416.42944     665.4340     545.4802   1416.42944     665.4340     545.4802
   1416.41418     666.7288     546.0854   1416.41418     666.7288     546.0854
   1416.39893     665.2430     544.6592   1416.39893     665.2430     544.6592
   1416.38367     665.9910     545.1177   1416.38367     665.9910     545.1177
   1416.36841     666.1398     544.0488   1416.36841     666.1398     544.0488
   1416.35315     665.4847     544.3054   1416.35315     665.4847     544.3054
   1416.33789     665.4875     544.3729   1416.33789     665.4875     544.3729
   1416.32263     665.9579     543.9568   1416.32263     665.9579     543.9568
   1416.30737     665.8082     543.1132   1416.30737     665.8082     543.1132
   1416.29211     665.5062     543.3454   1416.29211     665.5062     543.3454
   1416.27686     663.8447     543.3583   1416.27686     663.8447     543.3583
   1416.26160     663.6392     542.8990   1416.26160     663.6392     542.8990
   1416.24634     664.2906     542.4615   1416.24634     664.2906     542.4615
   1416.23108     663.8656     540.6387   1416.23108     663.8656     540.6387
   1416.21582     663.8575     542.0085   1416.21582     663.8575     542.0085
   1416.20056     665.0399     540.6388   1416.20056     665.0399     540.6388
   1416.18530     663.0363     540.1207   1416.18530     663.0363     540.1207
   1416.17004     662.4027     540.7249   1416.17004     662.4027     540.7249
   1416.15479     662.9756     539.1002   1416.15479     662.9756     539.1002
   1416.13953     662.5235     539.0403   1416.13953     662.5235     539.0403
   1416.12427     661.7815     538.3040   1416.12427     661.7815     538.3040
   1416.10901     661.7083     538.4250   1416.10901     661.7083     538.4250
   1416.09375     662.1425     537.2296   1416.09375     662.1425     537.2296
   1416.07849     660.8461     537.7610   1416.07849     660.8461     537.7610
   1416.06323     659.4392     536.3668   1416.06323     659.4392     536.3668
   1416.04797     660.5196     536.3219   1416.04797     660.5196     536.3219
   1416.03271     659.4203     535.1957   1416.03271     659.4203     535.1957
   1416.01746     659.2597     535.6472   1416.01746     659.2597     535.6472
   1416.00220     658.9014     534.0695   1416.00220     658.9014     534.0695
   1415.98694     659.1326     534.7397   1415.98694     659.1326     534.7397
   1415.97168     657.6405     533.5328   1415.97168     657.6405     533.5328
   1415.95642     657.6229     532.8159   1415.95642     657.6229     532.8159
   1415.94116     657.5165     532.5024   1415.94116     657.5165     532.5024
   1415.92590     656.0167     530.9902   1415.92590     656.0167     530.9902
   1415.91064     656.2054     530.5983   1415.91064     656.2054     530.5983
   1415.89539     655.0336     531.2173   1415.89539     655.0336     531.2173
   1415.88013     655.1409     528.7545   1415.88013     655.1409     528.7545
   1415.86487     654.4656     528.1579   1415.86487     654.4656     528.1579
   1415.84961     653.7954     528.4419   1415.84961     653.7954     528.4419
   1415.83435     653.3399     527.8066   1415.83435     653.3399     527.8066
   1415.81909     653.6002     527.3930   1415.81909     653.6002     527.3930
   1415.80383     650.9535     526.0057   1415.80383     650.9535     526.0057
   1415.78857     652.0013     525.1523   1415.78857     652.0013     525.1523
   1415.77332     650.1309     525.1267   1415.77332     650.1309     525.1267
   1415.75806     649.6392     523.8505   1415.75806     649.6392     523.8505
   1415.74280     649.8356     523.0120   1415.74280     649.8356     523.0120
   1415.72754     649.8682     523.5902   1415.72754     649.8682     523.5902
   1415.71228     648.1452     522.0356   1415.71228     648.1452     522.0356
   1415.69702     647.6639     522.6262   1415.69702     647.6639     522.6262
   1415.68176     645.5088     521.4542   1415.68176     645.5088     521.4542
   1415.66650     646.2486     520.0531   1415.66650     646.2486     520.0531
   1415.65125     646.4568     518.6938   1415.65125     646.4568     518.6938
   1415.63599     645.9283     518.5379   1415.63599     645.9283     518.5379
   1415.62073     646.1864     517.6162   1415.62073     646.1864     517.6162
   1415.60547     643.1752     517.5578   1415.60547     643.1752     517.5578
   1415.59021     643.0130     516.5994   1415.59021     643.0130     516.5994
   1415.57495     641.9468     515.6284   1415.57495     641.9468     515.6284
   1415.55969     641.4769     515.2140   1415.55969     641.4769     515.2140
   1415.54443     640.1635     514.0257   1415.54443     640.1635     514.0257
   1415.52917     639.5890     512.2365   1415.52917     639.5890     512.2365
   1415.51392     638.2123     512.8672   1415.51392     638.2123     512.8672
   1415.49866     637.7631     512.8735   1415.49866     637.7631     512.8735
   1415.48340     637.7811     510.8018   1415.48340     637.7811     510.8018
   1415.46814     637.2523     510.3745   1415.46814     637.2523     510.3745
   1415.45288     635.4869     510.1868   1415.45288     635.4869     510.1868
   1415.43762     635.0914     509.0936   1415.43762     635.0914     509.0936
   1415.42236     634.1985     507.6933   1415.42236     634.1985     507.6933
   1415.40710     633.6784     506.6068   1415.40710     633.6784     506.6068
   1415.39185     631.3837     504.9907   1415.39185     631.3837     504.9907
   1415.37659     631.8677     505.4050   1415.37659     631.8677     505.4050
   1415.36133     630.3207     504.7678   1415.36133     630.3207     504.7678
   1415.34607     629.4542     502.9340   1415.34607     629.4542     502.9340
   1415.33081     629.0984     502.7710   1415.33081     629.0984     502.7710
   1415.31555     627.1440     502.0132   1415.31555     627.1440     502.0132
   1415.30029     625.8235     500.5576   1415.30029     625.8235     500.5576
   1415.28503     625.2523     499.6616   1415.28503     625.2523     499.6616
   1415.26978     623.9407     499.8356   1415.26978     623.9407     499.8356
   1415.25452     623.4151     498.8133   1415.25452     623.4151     498.8133
   1415.23926     621.7393     497.7251   1415.23926     621.7393     497.7251
   1415.22400     621.3697     496.4311   1415.22400     621.3697     496.4311
   1415.20874     620.5988     496.0007   1415.20874     620.5988     496.0007
   1415.19348     619.2764     495.5150   1415.19348     619.2764     495.5150
   1415.17822     618.5946     495.0312   1415.17822     618.5946     495.0312
   1415.16296     615.8408     494.0705   1415.16296     615.8408     494.0705
   1415.14771     614.9698     492.3554   1415.14771     614.9698     492.3554
   1415.13245     614.7521     492.2013   1415.13245     614.7521     492.2013
   1415.11719     612.2858     490.4499   1415.11719     612.2858     490.4499
   1415.10193     612.2770     489.5729   1415.10193     612.2770     489.5729
   1415.08667     610.8564     488.5864   1415.08667     610.8564     488.5864
   1415.07141     609.5331     487.9975   1415.07141     609.5331     487.9975
   1415.05615     609.0747     487.3701   1415.05615     609.0747     487.3701
   1415.04089     606.8765     486.7932   1415.04089     606.8765     486.7932
   1415.02563     604.6159     484.9668   1415.02563     604.6159     484.9668
   1415.01038     604.3267     484.0409   1415.01038     604.3267     484.0409
   1414.99512     603.5273     483.7534   1414.99512     603.5273     483.7534
   1414.97986     601.4965     482.5549   1414.97986     601.4965     482.5549
   1414.96460     601.1344     481.0240   1414.96460     601.1344     481.0240
   1414.94934     598.8312     480.1515   1414.94934     598.8312     480.1515
   1414.93408     598.5238     479.3945   1414.93408     598.5238     479.3945
   1414.91882     596.9442     477.9991   1414.91882     596.9442     477.9991
   1414.90356     594.9023     476.7981   1414.90356     594.9023     476.7981
   1414.88831     593.4027     475.4709   1414.88831     593.4027     475.4709
   1414.87305     592.7565     475.5206   1414.87305     592.7565     475.5206
   1414.85779     590.0319     473.1842   1414.85779     590.0319     473.1842
   1414.84253     589.3867     473.3056   1414.84253     589.3867     473.3056
   1414.82727     587.7870     471.3080   1414.82727     587.7870     471.3080
   1414.81201     585.6942     470.7384   1414.81201     585.6942     470.7384
   1414.79675     585.6046     470.3540   1414.79675     585.6046     470.3540
   1414.78149     582.8869     468.6291   1414.78149     582.8869     468.6291
   1414.76624     581.7590     467.1592   1414.76624     581.7590     467.1592
   1414.75098     580.4180     466.2582   1414.75098     580.4180     466.2582
   1414.73572     577.8936     465.2148   1414.73572     577.8936     465.2148
   1414.72046     576.0464     463.7087   1414.72046     576.0464     463.7087
   1414.70520     575.2874     462.7740   1414.70520     575.2874     462.7740
   1414.68994     573.4987     461.8999   1414.68994     573.4987     461.8999
   1414.67468     571.6530     460.2892   1414.67468     571.6530     460.2892
   1414.65942     570.4174     458.5539   1414.65942     570.4174     458.5539
   1414.64417     568.1147     457.5073   1414.64417     568.1147     457.5073
   1414.62891     566.7269     456.0965   1414.62891     566.7269     456.0965
   1414.61365     564.4706     454.9529   1414.61365     564.4706     454.9529
   1414.59839     563.4186     453.8431   1414.59839     563.4186     453.8431
   1414.58313     561.3945     453.1142   1414.58313     561.3945     453.1142
   1414.56787     559.5721     451.4829   1414.56787     559.5721     451.4829
   1414.55261     556.9335     450.0904   1414.55261     556.9335     450.0904
   1414.53735     555.7426     449.0138   1414.53735     555.7426     449.0138
   1414.52209     553.2921     447.1071   1414.52209     553.2921     447.1071
   1414.50684     551.7650     445.7518   1414.50684     551.7650     445.7518
   1414.49158     550.3369     444.8098   1414.49158     550.3369     444.8098
   1414.47632     547.5636     443.9487   1414.47632     547.5636     443.9487
   1414.46106     545.8298     441.5818   1414.46106     545.8298     441.5818
   1414.44580     544.2718     440.7506   1414.44580     544.2718     440.7506
   1414.43054     542.2968     439.1679   1414.43054     542.2968     439.1679
   1414.41528     540.0196     437.8374   1414.41528     540.0196     437.8374
   1414.40002     538.7676     436.6768   1414.40002     538.7676     436.6768
   1414.38477     537.0346     436.0100   1414.38477     537.0346     436.0100
   1414.36951     534.3902     434.0511   1414.36951     534.3902     434.0511
   1414.35425     532.7992     432.3501   1414.35425     532.7992     432.3501
   1414.33899     530.7017     430.9580   1414.33899     530.7017     430.9580
   1414.32373     528.1161     430.0647   1414.32373     528.1161     430.0647
   1414.30847     526.1616     427.8568   1414.30847     526.1616     427.8568
   1414.29321     524.7141     427.2556   1414.29321     524.7141     427.2556
   1414.27795     521.9448     425.0318   1414.27795     521.9448     425.0318
   1414.26270     520.1353     423.5398   1414.26270     520.1353     423.5398
   1414.24744     517.2025     422.8364   1414.24744     517.2025     422.8364
   1414.23218     515.2184     420.8058   1414.23218     515.2184     420.8058
   1414.21692     512.7908     419.6815   1414.21692     512.7908     419.6815
   1414.20166     511.7050     417.6765   1414.20166     511.7050     417.6765
   1414.18640     508.5722     416.8312   1414.18640     508.5722     416.8312
   1414.17114     506.3891     415.4991   1414.17114     506.3891     415.4991
   1414.15588     504.7475     413.2320   1414.15588     504.7475     413.2320
   1414.14062     502.1292     412.5850   1414.14062     502.1292     412.5850
   1414.12537     499.5941     409.8065   1414.12537     499.5941     409.8065
   1414.11011     497.6328     408.6728   1414.11011     497.6328     408.6728
   1414.09485     495.6399     407.0929   1414.09485     495.6399     407.0929
   1414.07959     493.5637     406.1203   1414.07959     493.5637     406.1203
   1414.06433     491.2537     403.5320   1414.06433     491.2537     403.5320
   1414.04907     488.5259     402.7410   1414.04907     488.5259     402.7410
   1414.03381     486.5804     401.0535   1414.03381     486.5804     401.0535
   1414.01855     485.1378     399.8470   1414.01855     485.1378     399.8470
   1414.00330     504.3549     406.8541   1414.00330     504.3549     406.8541
   1413.98804     481.2486     396.5402   1413.98804     481.2486     396.5402
   1413.97278     477.3376     394.5543   1413.97278     477.3376     394.5543
   1413.95752     474.5065     392.9686   1413.95752     474.5065     392.9686
   1413.94226     471.1503     391.3123   1413.94226     471.1503     391.3123
   1413.92700     469.7498     390.1447   1413.92700     469.7498     390.1447
   1413.91174     467.3110     388.0637   1413.91174     467.3110     388.0637
   1413.89648     465.3207     386.5920   1413.89648     465.3207     386.5920
   1413.88123     463.0699     385.3325   1413.88123     463.0699     385.3325
   1413.86597     460.8940     383.3416   1413.86597     460.8940     383.3416
   1413.85071     458.4891     381.2715   1413.85071     458.4891     381.2715
   1413.83545     455.3845     380.2063   1413.83545     455.3845     380.2063
   1413.82019     453.1371     378.4118   1413.82019     453.1371     378.4118
   1413.80493     450.4919     376.7277   1413.80493     450.4919     376.7277
   1413.78967     448.1622     375.1539   1413.78967     448.1622     375.1539
   1413.77441     445.3851     373.7896   1413.77441     445.3851     373.7896
   1413.75916     444.1733     371.5436   1413.75916     444.1733     371.5436
   1413.74390     441.3006     369.9853   1413.74390     441.3006     369.9853
   1413.72864     439.0687     368.4643   1413.72864     439.0687     368.4643
   1413.71338     436.7290     366.6516   1413.71338     436.7290     366.6516
   1413.69812     433.5465     365.1382   1413.69812     433.5465     365.1382
   1413.68286     431.0738     363.8381   1413.68286     431.0738     363.8381
   1413.66760     428.3903     362.4040   1413.66760     428.3903     362.4040
   1413.65234     426.8073     360.6631   1413.65234     426.8073     360.6631
   1413.63708     424.6208     358.9985   1413.63708     424.6208     358.9985
   1413.62183     421.8399     357.6397   1413.62183     421.8399     357.6397
   1413.60657     419.6471     355.9789   1413.60657     419.6471     355.9789
   1413.59131     417.6508     354.2423   1413.59131     417.6508     354.2423
   1413.57605     415.0987     352.3553   1413.57605     415.0987     352.3553
   1413.56079     412.4138     350.9885   1413.56079     412.4138     350.9885
   1413.54553     410.8568     349.5268   1413.54553     410.8568     349.5268
   1413.53027     407.6587     347.5139   1413.53027     407.6587     347.5139
   1413.51501     405.3161     345.5738   1413.51501     405.3161     345.5738
   1413.49976     403.4182     344.5042   1413.49976     403.4182     344.5042
   1413.48450     401.1222     343.2591   1413.48450     401.1222     343.2591
   1413.46924     398.8351     340.9489   1413.46924     398.8351     340.9489
   1413.45398     396.6896     339.8876   1413.45398     396.6896     339.8876
   1413.43872     394.1214     338.4081   1413.43872     394.1214     338.4081
   1413.42346     391.8753     336.7277   1413.42346     391.8753     336.7277
   1413.40820     388.9338     335.1021   1413.40820     388.9338     335.1021
   1413.39294     387.2029     334.2314   1413.39294     387.2029     334.2314
   1413.37769     384.1247     332.3146   1413.37769     384.1247     332.3146
   1413.36243     382.6545     331.2004   1413.36243     382.6545     331.2004
   1413.34717     380.7793     329.3476   1413.34717     380.7793     329.3476
   1413.33191     377.9377     327.7659   1413.33191     377.9377     327.7659
   1413.31665     375.8041     326.1975   1413.31665     375.8041     326.1975
   1413.30139     373.2413     325.0887   1413.30139     373.2413     325.0887
   1413.28613     371.5280     323.3763   1413.28613     371.5280     323.3763
   1413.27087     369.6276     322.5307   1413.27087     369.6276     322.5307
   1413.25562     367.9169     321.1730   1413.25562     367.9169     321.1730
   1413.24036     365.4052     319.5264   1413.24036     365.4052     319.5264
   1413.22510     363.2002     317.5801   1413.22510     363.2002     317.5801
   1413.20984     360.4802     316.6716   1413.20984     360.4802     316.6716
   1413.19458     358.8060     315.0163   1413.19458     358.8060     315.0163
   1413.17932     356.8816     314.0165   1413.17932     356.8816     314.0165
   1413.16406     354.9754     312.7764   1413.16406     354.9754     312.7764
   1413.14880     353.1685     311.5464   1413.14880     353.1685     311.5464
   1413.13354     351.5019     310.3279   1413.13354     351.5019     310.3279
   1413.11829     349.1222     308.9982   1413.11829     349.1222     308.9982
   1413.10303     347.4052     307.7445   1413.10303     347.4052     307.7445
   1413.08777     345.6222     306.4637   1413.08777     345.6222     306.4637
   1413.07251     343.3176     305.2298   1413.07251     343.3176     305.2298
   1413.05725     340.9589     304.3028   1413.05725     340.9589     304.3028
   1413.04199     339.9012     302.7389   1413.04199     339.9012     302.7389
   1413.02673     338.1645     302.0461   1413.02673     338.1645     302.0461
   1413.01147     336.2584     300.6927   1413.01147     336.2584     300.6927
   1412.99622     334.3001     299.7632   1412.99622     334.3001     299.7632
   1412.98096     333.3256     298.7509   1412.98096     333.3256     298.7509
   1412.96570     331.2939     298.2282   1412.96570     331.2939     298.2282
   1412.95044     329.4116     296.6717   1412.95044     329.4116     296.6717
   1412.93518     328.1906     295.6508   1412.93518     328.1906     295.6508
   1412.91992     326.6340     294.3260   1412.91992     326.6340     294.3260
   1412.90466     325.3607     293.9731   1412.90466     325.3607     293.9731
   1412.88940     323.4225     292.9000   1412.88940     323.4225     292.9000
   1412.87415     321.5717     292.0181   1412.87415     321.5717     292.0181
   1412.85889     320.8676     291.8146   1412.85889     320.8676     291.8146
   1412.84363     319.4846     289.7849   1412.84363     319.4846     289.7849
   1412.82837     317.9914     289.3471   1412.82837     317.9914     289.3471
   1412.81311     316.5372     289.0963   1412.81311     316.5372     289.0963
   1412.79785     315.4718     288.4908   1412.79785     315.4718     288.4908
   1412.78259     314.1836     287.3769   1412.78259     314.1836     287.3769
   1412.76733     313.0718     287.4911   1412.76733     313.0718     287.4911
   1412.75208     311.9041     286.5550   1412.75208     311.9041     286.5550
   1412.73682     311.0107     285.3714   1412.73682     311.0107     285.3714
   1412.72156     309.2659     285.3429   1412.72156     309.2659     285.3429
   1412.70630     308.6897     284.7001   1412.70630     308.6897     284.7001
   1412.69104     307.8014     284.4137   1412.69104     307.8014     284.4137
   1412.67578     306.5667     283.4355   1412.67578     306.5667     283.4355
   1412.66052     305.8120     283.9858   1412.66052     305.8120     283.9858
   1412.64526     304.8459     282.7596   1412.64526     304.8459     282.7596
   1412.63000     303.9539     282.9474   1412.63000     303.9539     282.9474
   1412.61475     302.8254     282.5927   1412.61475     302.8254     282.5927
   1412.59949     302.6178     282.5975   1412.59949     302.6178     282.5975
   1412.58423     302.0467     281.5988   1412.58423     302.0467     281.5988
   1412.56897     300.9246     281.8871   1412.56897     300.9246     281.8871
   1412.55371     300.7443     281.5920   1412.55371     300.7443     281.5920
   1412.53845     300.0280     281.4314   1412.53845     300.0280     281.4314
   1412.52319     299.3798     281.6096   1412.52319     299.3798     281.6096
   1412.50793     298.2239     281.3191   1412.50793     298.2239     281.3191
   1412.49268     298.2722     281.5305   1412.49268     298.2722     281.5305
   1412.47742     297.9109     281.3475   1412.47742     297.9109     281.3475
   1412.46216     297.3264     281.2466   1412.46216     297.3264     281.2466
   1412.44690     297.6571     281.9242   1412.44690     297.6571     281.9242
   1412.43164     297.5262     281.8985   1412.43164     297.5262     281.8985
   1412.41638     296.9695     281.9821   1412.41638     296.9695     281.9821
   1412.40112     296.8215     282.2345   1412.40112     296.8215     282.2345
   1412.38586     296.3972     282.5020   1412.38586     296.3972     282.5020
   1412.37061     296.1733     282.8093   1412.37061     296.1733     282.8093
   1412.35535     296.0476     282.7297   1412.35535     296.0476     282.7297
   1412.34009     296.1926     283.6431   1412.34009     296.1926     283.6431
   1412.32483     296.4140     283.9484   1412.32483     296.4140     283.9484
   1412.30957     296.8032     284.8746   1412.30957     296.8032     284.8746
   1412.29431     296.7243     284.8129   1412.29431     296.7243     284.8129
   1412.27905     297.0123     285.7350   1412.27905     297.0123     285.7350
   1412.26379     296.8850     286.3068   1412.26379     296.8850     286.3068
   1412.24854     297.4788     286.9147   1412.24854     297.4788     286.9147
   1412.23328     297.3094     287.6746   1412.23328     297.3094     287.6746
   1412.21802     297.8748     288.2974   1412.21802     297.8748     288.2974
   1412.20276     298.0868     289.2392   1412.20276     298.0868     289.2392