#     FILENAME=!Skynet_57528_lach-cc-239_20655_21016.cyb.fits
#     BASENAME=Skynet_57528_lach-cc-239_20655_21016
#     SRC_NAME=lach-cc-239
#     OBSERVER=ccmadison16_9505
#     DATE_OBS=2016-05-20T19:07:51.560
#        OBSID=20655
#      SCANNUM=21016
#          MJD=57528.7982
#          UTC=68960
#     SCANTYPE=track
#     DATAMODE=HIRES
#     TUNEFREQ=1420.0000
# Actual_FREQ1=1420.0000
# Actual_FREQ2=1420.0000
#    LO1Tuning=6870.000
#     RFFILTER=1355_1435
#        OBSBW=-15.6250
#        NCHAN=1024 
#        FOCUS=37.1148
#           RA=07:41:46.76
#          DEC=-23:01:17.12
#      RA(hrs)=7.696300
#     DEC(deg)=-23.021400
#    AZIM(deg)=149.995
#    ELEV(deg)=22.365
#     IFattens=11.00, 10.00
#      WARNING=None
#    TCAL_XL1=7.9635
#    TCAL_YR1=9.1340
#    TCAL_XL2=7.9635
#    TCAL_YR2=9.1340
#     TRX_XL1=11.7060
#     TRX_YR1=11.7060
#     TRX_XL2=11.7060
#     TRX_YR2=11.7060
#        TAVE=1.0000
#Freq1(MHz)          XL1          YR1  Freq2(MHz)          XL2          YR2 

   1427.81250     297.6243     239.2930   1427.81250     297.6243     239.2930
   1427.79724     297.9401     239.4643   1427.79724     297.9401     239.4643
   1427.78198     298.5187     239.7795   1427.78198     298.5187     239.7795
   1427.76672     299.1148     240.3150   1427.76672     299.1148     240.3150
   1427.75146     300.0773     241.0907   1427.75146     300.0773     241.0907
   1427.73621     300.9521     241.7546   1427.73621     300.9521     241.7546
   1427.72095     301.7498     241.7459   1427.72095     301.7498     241.7459
   1427.70569     301.9573     242.6426   1427.70569     301.9573     242.6426
   1427.69043     302.9448     243.5150   1427.69043     302.9448     243.5150
   1427.67517     303.7996     243.7196   1427.67517     303.7996     243.7196
   1427.65991     304.7538     245.0121   1427.65991     304.7538     245.0121
   1427.64465     305.9142     245.7020   1427.64465     305.9142     245.7020
   1427.62939     307.1935     246.8369   1427.62939     307.1935     246.8369
   1427.61414     307.9638     247.3394   1427.61414     307.9638     247.3394
   1427.59888     309.3148     247.7401   1427.59888     309.3148     247.7401
   1427.58362     310.4731     249.4774   1427.58362     310.4731     249.4774
   1427.56836     311.2181     250.2200   1427.56836     311.2181     250.2200
   1427.55310     312.4301     251.1653   1427.55310     312.4301     251.1653
   1427.53784     313.6924     252.0031   1427.53784     313.6924     252.0031
   1427.52258     315.4196     253.1651   1427.52258     315.4196     253.1651
   1427.50732     315.7116     254.4310   1427.50732     315.7116     254.4310
   1427.49207     317.3640     255.7978   1427.49207     317.3640     255.7978
   1427.47681     318.8104     256.8773   1427.47681     318.8104     256.8773
   1427.46155     320.9951     258.0425   1427.46155     320.9951     258.0425
   1427.44629     322.1766     258.7990   1427.44629     322.1766     258.7990
   1427.43103     323.1882     259.9809   1427.43103     323.1882     259.9809
   1427.41577     325.2864     261.3936   1427.41577     325.2864     261.3936
   1427.40051     326.3882     263.0123   1427.40051     326.3882     263.0123
   1427.38525     328.0054     263.9028   1427.38525     328.0054     263.9028
   1427.37000     329.5423     265.3703   1427.37000     329.5423     265.3703
   1427.35474     331.8391     266.8720   1427.35474     331.8391     266.8720
   1427.33948     333.4365     268.4654   1427.33948     333.4365     268.4654
   1427.32422     334.8953     269.9435   1427.32422     334.8953     269.9435
   1427.30896     336.8975     271.3946   1427.30896     336.8975     271.3946
   1427.29370     338.4803     272.2024   1427.29370     338.4803     272.2024
   1427.27844     340.4347     274.1570   1427.27844     340.4347     274.1570
   1427.26318     342.2798     275.8592   1427.26318     342.2798     275.8592
   1427.24792     343.8819     277.2545   1427.24792     343.8819     277.2545
   1427.23267     345.7294     279.2846   1427.23267     345.7294     279.2846
   1427.21741     347.8413     280.7867   1427.21741     347.8413     280.7867
   1427.20215     349.9877     282.3090   1427.20215     349.9877     282.3090
   1427.18689     351.6570     284.0771   1427.18689     351.6570     284.0771
   1427.17163     353.3696     285.6320   1427.17163     353.3696     285.6320
   1427.15637     355.7720     286.9828   1427.15637     355.7720     286.9828
   1427.14111     357.9301     288.9971   1427.14111     357.9301     288.9971
   1427.12585     360.3697     290.9173   1427.12585     360.3697     290.9173
   1427.11060     362.0366     292.3921   1427.11060     362.0366     292.3921
   1427.09534     364.3526     294.1562   1427.09534     364.3526     294.1562
   1427.08008     367.3461     296.2811   1427.08008     367.3461     296.2811
   1427.06482     368.7098     297.8234   1427.06482     368.7098     297.8234
   1427.04956     370.5445     299.5037   1427.04956     370.5445     299.5037
   1427.03430     373.2806     301.7923   1427.03430     373.2806     301.7923
   1427.01904     374.9395     303.8039   1427.01904     374.9395     303.8039
   1427.00378     376.8521     305.0643   1427.00378     376.8521     305.0643
   1426.98853     379.8182     307.5502   1426.98853     379.8182     307.5502
   1426.97327     381.7119     309.1279   1426.97327     381.7119     309.1279
   1426.95801     384.3647     311.0303   1426.95801     384.3647     311.0303
   1426.94275     385.8951     313.3246   1426.94275     385.8951     313.3246
   1426.92749     388.7031     315.3067   1426.92749     388.7031     315.3067
   1426.91223     391.0362     317.3336   1426.91223     391.0362     317.3336
   1426.89697     393.6642     319.0243   1426.89697     393.6642     319.0243
   1426.88171     395.6508     321.2923   1426.88171     395.6508     321.2923
   1426.86646     398.7243     322.8781   1426.86646     398.7243     322.8781
   1426.85120     400.6288     324.7530   1426.85120     400.6288     324.7530
   1426.83594     403.2033     327.3677   1426.83594     403.2033     327.3677
   1426.82068     405.3214     329.6860   1426.82068     405.3214     329.6860
   1426.80542     407.0385     331.6990   1426.80542     407.0385     331.6990
   1426.79016     409.8098     333.1861   1426.79016     409.8098     333.1861
   1426.77490     411.9300     335.4834   1426.77490     411.9300     335.4834
   1426.75964     414.6997     337.5330   1426.75964     414.6997     337.5330
   1426.74438     416.6397     339.7236   1426.74438     416.6397     339.7236
   1426.72913     419.5477     341.5351   1426.72913     419.5477     341.5351
   1426.71387     421.6286     343.6303   1426.71387     421.6286     343.6303
   1426.69861     424.7500     345.8373   1426.69861     424.7500     345.8373
   1426.68335     426.1860     347.6617   1426.68335     426.1860     347.6617
   1426.66809     429.3321     350.3275   1426.66809     429.3321     350.3275
   1426.65283     431.9857     352.6675   1426.65283     431.9857     352.6675
   1426.63757     433.7152     354.3076   1426.63757     433.7152     354.3076
   1426.62231     436.9284     357.4485   1426.62231     436.9284     357.4485
   1426.60706     438.3793     358.0523   1426.60706     438.3793     358.0523
   1426.59180     441.5112     361.4372   1426.59180     441.5112     361.4372
   1426.57654     443.4604     362.7992   1426.57654     443.4604     362.7992
   1426.56128     445.7800     365.7405   1426.56128     445.7800     365.7405
   1426.54602     447.9399     366.9320   1426.54602     447.9399     366.9320
   1426.53076     449.5460     369.4585   1426.53076     449.5460     369.4585
   1426.51550     453.0734     371.1771   1426.51550     453.0734     371.1771
   1426.50024     454.9917     373.3197   1426.50024     454.9917     373.3197
   1426.48499     457.0819     375.1444   1426.48499     457.0819     375.1444
   1426.46973     460.3944     377.4392   1426.46973     460.3944     377.4392
   1426.45447     462.8005     380.1613   1426.45447     462.8005     380.1613
   1426.43921     464.5123     381.9936   1426.43921     464.5123     381.9936
   1426.42395     467.6149     383.8584   1426.42395     467.6149     383.8584
   1426.40869     469.5879     385.8928   1426.40869     469.5879     385.8928
   1426.39343     471.3882     388.3845   1426.39343     471.3882     388.3845
   1426.37817     473.5154     390.1520   1426.37817     473.5154     390.1520
   1426.36292     476.4817     392.4748   1426.36292     476.4817     392.4748
   1426.34766     478.3346     393.8035   1426.34766     478.3346     393.8035
   1426.33240     481.1281     395.8634   1426.33240     481.1281     395.8634
   1426.31714     482.7743     397.9615   1426.31714     482.7743     397.9615
   1426.30188     485.5665     399.8953   1426.30188     485.5665     399.8953
   1426.28662     487.2551     402.5446   1426.28662     487.2551     402.5446
   1426.27136     490.2132     403.8549   1426.27136     490.2132     403.8549
   1426.25610     491.9559     406.7732   1426.25610     491.9559     406.7732
   1426.24084     494.5918     408.0296   1426.24084     494.5918     408.0296
   1426.22559     496.8591     410.4643   1426.22559     496.8591     410.4643
   1426.21033     497.4712     412.3763   1426.21033     497.4712     412.3763
   1426.19507     500.4066     413.4352   1426.19507     500.4066     413.4352
   1426.17981     502.1055     416.3174   1426.17981     502.1055     416.3174
   1426.16455     504.4435     417.0636   1426.16455     504.4435     417.0636
   1426.14929     506.4781     419.5878   1426.14929     506.4781     419.5878
   1426.13403     507.8646     421.8858   1426.13403     507.8646     421.8858
   1426.11877     510.1294     423.5533   1426.11877     510.1294     423.5533
   1426.10352     512.6009     425.7247   1426.10352     512.6009     425.7247
   1426.08826     514.5323     427.3684   1426.08826     514.5323     427.3684
   1426.07300     517.1035     429.0540   1426.07300     517.1035     429.0540
   1426.05774     518.5853     430.9623   1426.05774     518.5853     430.9623
   1426.04248     520.5448     432.5371   1426.04248     520.5448     432.5371
   1426.02722     522.1095     434.6706   1426.02722     522.1095     434.6706
   1426.01196     524.9188     436.2783   1426.01196     524.9188     436.2783
   1425.99670     526.0663     438.5963   1425.99670     526.0663     438.5963
   1425.98145     527.7520     440.0790   1425.98145     527.7520     440.0790
   1425.96619     530.0916     442.1211   1425.96619     530.0916     442.1211
   1425.95093     531.7288     443.7797   1425.95093     531.7288     443.7797
   1425.93567     533.7117     444.8046   1425.93567     533.7117     444.8046
   1425.92041     535.9292     446.7596   1425.92041     535.9292     446.7596
   1425.90515     536.2880     449.1851   1425.90515     536.2880     449.1851
   1425.88989     538.4949     450.1736   1425.88989     538.4949     450.1736
   1425.87463     539.1142     452.0005   1425.87463     539.1142     452.0005
   1425.85938     541.5051     453.7273   1425.85938     541.5051     453.7273
   1425.84412     543.9394     454.7007   1425.84412     543.9394     454.7007
   1425.82886     545.0334     457.1372   1425.82886     545.0334     457.1372
   1425.81360     545.9930     458.2745   1425.81360     545.9930     458.2745
   1425.79834     549.3007     461.2874   1425.79834     549.3007     461.2874
   1425.78308     549.6851     461.3955   1425.78308     549.6851     461.3955
   1425.76782     551.4130     463.1633   1425.76782     551.4130     463.1633
   1425.75256     552.1144     464.3579   1425.75256     552.1144     464.3579
   1425.73730     554.7469     466.0442   1425.73730     554.7469     466.0442
   1425.72205     556.2651     467.9209   1425.72205     556.2651     467.9209
   1425.70679     557.8195     469.8753   1425.70679     557.8195     469.8753
   1425.69153     558.4135     470.8304   1425.69153     558.4135     470.8304
   1425.67627     559.4062     472.3838   1425.67627     559.4062     472.3838
   1425.66101     561.1834     473.6941   1425.66101     561.1834     473.6941
   1425.64575     562.5808     475.3210   1425.64575     562.5808     475.3210
   1425.63049     563.5657     476.9141   1425.63049     563.5657     476.9141
   1425.61523     565.7478     478.2967   1425.61523     565.7478     478.2967
   1425.59998     566.2301     479.1463   1425.59998     566.2301     479.1463
   1425.58472     567.9000     481.2337   1425.58472     567.9000     481.2337
   1425.56946     569.1472     482.3235   1425.56946     569.1472     482.3235
   1425.55420     569.8675     483.6503   1425.55420     569.8675     483.6503
   1425.53894     571.7369     485.1023   1425.53894     571.7369     485.1023
   1425.52368     572.1985     486.6706   1425.52368     572.1985     486.6706
   1425.50842     573.6978     488.5167   1425.50842     573.6978     488.5167
   1425.49316     574.3982     489.3522   1425.49316     574.3982     489.3522
   1425.47791     576.6426     491.0130   1425.47791     576.6426     491.0130
   1425.46265     577.0276     492.2669   1425.46265     577.0276     492.2669
   1425.44739     578.0795     492.7943   1425.44739     578.0795     492.7943
   1425.43213     579.6080     494.1009   1425.43213     579.6080     494.1009
   1425.41687     579.8176     496.0380   1425.41687     579.8176     496.0380
   1425.40161     580.4128     497.5518   1425.40161     580.4128     497.5518
   1425.38635     581.8232     498.8684   1425.38635     581.8232     498.8684
   1425.37109     582.4122     499.3986   1425.37109     582.4122     499.3986
   1425.35583     583.3025     500.1132   1425.35583     583.3025     500.1132
   1425.34058     583.7094     502.4614   1425.34058     583.7094     502.4614
   1425.32532     585.2947     502.8881   1425.32532     585.2947     502.8881
   1425.31006     585.5551     504.4832   1425.31006     585.5551     504.4832
   1425.29480     586.6996     505.0627   1425.29480     586.6996     505.0627
   1425.27954     586.9611     506.0474   1425.27954     586.9611     506.0474
   1425.26428     588.6016     507.0043   1425.26428     588.6016     507.0043
   1425.24902     590.3195     509.2712   1425.24902     590.3195     509.2712
   1425.23376     589.1389     509.9191   1425.23376     589.1389     509.9191
   1425.21851     590.0305     510.8442   1425.21851     590.0305     510.8442
   1425.20325     591.1693     512.6965   1425.20325     591.1693     512.6965
   1425.18799     592.3900     513.3714   1425.18799     592.3900     513.3714
   1425.17273     592.9662     514.0261   1425.17273     592.9662     514.0261
   1425.15747     593.1329     515.3533   1425.15747     593.1329     515.3533
   1425.14221     593.8370     516.4455   1425.14221     593.8370     516.4455
   1425.12695     596.0719     518.4518   1425.12695     596.0719     518.4518
   1425.11169     594.9458     518.9049   1425.11169     594.9458     518.9049
   1425.09644     595.8093     520.1755   1425.09644     595.8093     520.1755
   1425.08118     596.1353     520.9706   1425.08118     596.1353     520.9706
   1425.06592     595.3292     522.2903   1425.06592     595.3292     522.2903
   1425.05066     596.4551     522.7660   1425.05066     596.4551     522.7660
   1425.03540     596.6917     523.7966   1425.03540     596.6917     523.7966
   1425.02014     598.0025     524.9839   1425.02014     598.0025     524.9839
   1425.00488     599.9947     525.2015   1425.00488     599.9947     525.2015
   1424.98962     599.6343     527.2107   1424.98962     599.6343     527.2107
   1424.97437     599.3688     527.7366   1424.97437     599.3688     527.7366
   1424.95911     599.6843     529.2292   1424.95911     599.6843     529.2292
   1424.94385     600.9763     529.4005   1424.94385     600.9763     529.4005
   1424.92859     599.7961     530.3375   1424.92859     599.7961     530.3375
   1424.91333     600.2103     530.3704   1424.91333     600.2103     530.3704
   1424.89807     601.2809     532.2021   1424.89807     601.2809     532.2021
   1424.88281     601.4273     532.9493   1424.88281     601.4273     532.9493
   1424.86755     600.8223     533.7146   1424.86755     600.8223     533.7146
   1424.85229     602.1442     535.3315   1424.85229     602.1442     535.3315
   1424.83704     602.0088     535.1944   1424.83704     602.0088     535.1944
   1424.82178     602.9238     536.4936   1424.82178     602.9238     536.4936
   1424.80652     602.3678     537.5661   1424.80652     602.3678     537.5661
   1424.79126     603.6759     538.6111   1424.79126     603.6759     538.6111
   1424.77600     602.8482     538.8333   1424.77600     602.8482     538.8333
   1424.76074     604.0321     539.7864   1424.76074     604.0321     539.7864
   1424.74548     602.5779     540.1155   1424.74548     602.5779     540.1155
   1424.73022     602.4304     541.0571   1424.73022     602.4304     541.0571
   1424.71497     602.7820     541.9965   1424.71497     602.7820     541.9965
   1424.69971     603.3441     542.1610   1424.69971     603.3441     542.1610
   1424.68445     604.0596     543.4912   1424.68445     604.0596     543.4912
   1424.66919     603.5677     543.9449   1424.66919     603.5677     543.9449
   1424.65393     603.6846     544.6567   1424.65393     603.6846     544.6567
   1424.63867     603.6528     545.7202   1424.63867     603.6528     545.7202
   1424.62341     604.4718     547.1483   1424.62341     604.4718     547.1483
   1424.60815     604.6810     546.7066   1424.60815     604.6810     546.7066
   1424.59290     604.1760     547.9597   1424.59290     604.1760     547.9597
   1424.57764     604.5229     548.6616   1424.57764     604.5229     548.6616
   1424.56238     605.9548     548.9750   1424.56238     605.9548     548.9750
   1424.54712     605.2208     549.6725   1424.54712     605.2208     549.6725
   1424.53186     603.7163     550.2012   1424.53186     603.7163     550.2012
   1424.51660     604.7955     551.6455   1424.51660     604.7955     551.6455
   1424.50134     605.1482     551.5335   1424.50134     605.1482     551.5335
   1424.48608     604.3013     552.5026   1424.48608     604.3013     552.5026
   1424.47083     604.6776     552.6315   1424.47083     604.6776     552.6315
   1424.45557     604.9200     553.2787   1424.45557     604.9200     553.2787
   1424.44031     604.6826     553.8424   1424.44031     604.6826     553.8424
   1424.42505     604.2919     554.7714   1424.42505     604.2919     554.7714
   1424.40979     604.4666     555.3618   1424.40979     604.4666     555.3618
   1424.39453     604.3473     556.1020   1424.39453     604.3473     556.1020
   1424.37927     604.1530     555.5609   1424.37927     604.1530     555.5609
   1424.36401     605.3273     557.5574   1424.36401     605.3273     557.5574
   1424.34875     604.0359     558.1034   1424.34875     604.0359     558.1034
   1424.33350     603.5576     557.6808   1424.33350     603.5576     557.6808
   1424.31824     604.5367     558.6590   1424.31824     604.5367     558.6590
   1424.30298     604.5826     559.1524   1424.30298     604.5826     559.1524
   1424.28772     604.9678     559.3912   1424.28772     604.9678     559.3912
   1424.27246     604.5146     559.4830   1424.27246     604.5146     559.4830
   1424.25720     603.9991     560.6445   1424.25720     603.9991     560.6445
   1424.24194     603.1535     561.3806   1424.24194     603.1535     561.3806
   1424.22668     603.6025     561.6648   1424.22668     603.6025     561.6648
   1424.21143     603.5966     562.0725   1424.21143     603.5966     562.0725
   1424.19617     603.5555     561.9092   1424.19617     603.5555     561.9092
   1424.18091     603.2861     562.6761   1424.18091     603.2861     562.6761
   1424.16565     603.6779     563.7378   1424.16565     603.6779     563.7378
   1424.15039     602.6359     564.7911   1424.15039     602.6359     564.7911
   1424.13513     603.2531     564.4911   1424.13513     603.2531     564.4911
   1424.11987     603.7838     565.4238   1424.11987     603.7838     565.4238
   1424.10461     603.5884     565.1863   1424.10461     603.5884     565.1863
   1424.08936     602.8304     564.9257   1424.08936     602.8304     564.9257
   1424.07410     602.4741     565.5237   1424.07410     602.4741     565.5237
   1424.05884     602.5292     565.1431   1424.05884     602.5292     565.1431
   1424.04358     602.9927     566.4132   1424.04358     602.9927     566.4132
   1424.02832     602.7194     566.7127   1424.02832     602.7194     566.7127
   1424.01306     603.0737     567.1608   1424.01306     603.0737     567.1608
   1423.99780     601.4944     567.3608   1423.99780     601.4944     567.3608
   1423.98254     602.1255     567.5884   1423.98254     602.1255     567.5884
   1423.96729     601.5123     567.8719   1423.96729     601.5123     567.8719
   1423.95203     601.4604     568.1270   1423.95203     601.4604     568.1270
   1423.93677     602.2874     568.0922   1423.93677     602.2874     568.0922
   1423.92151     601.0726     568.8628   1423.92151     601.0726     568.8628
   1423.90625     601.6360     569.4929   1423.90625     601.6360     569.4929
   1423.89099     600.9269     568.8838   1423.89099     600.9269     568.8838
   1423.87573     600.7665     569.2117   1423.87573     600.7665     569.2117
   1423.86047     601.8499     569.4010   1423.86047     601.8499     569.4010
   1423.84521     600.6456     569.6636   1423.84521     600.6456     569.6636
   1423.82996     600.0833     569.3051   1423.82996     600.0833     569.3051
   1423.81470     600.1774     569.3492   1423.81470     600.1774     569.3492
   1423.79944     600.8931     569.9223   1423.79944     600.8931     569.9223
   1423.78418     600.5791     569.6021   1423.78418     600.5791     569.6021
   1423.76892     599.9895     569.4200   1423.76892     599.9895     569.4200
   1423.75366     599.4358     570.2438   1423.75366     599.4358     570.2438
   1423.73840     599.8032     569.9925   1423.73840     599.8032     569.9925
   1423.72314     599.9028     570.0071   1423.72314     599.9028     570.0071
   1423.70789     599.4059     569.9539   1423.70789     599.4059     569.9539
   1423.69263     599.3134     569.7729   1423.69263     599.3134     569.7729
   1423.67737     598.9354     570.9850   1423.67737     598.9354     570.9850
   1423.66211     598.5398     569.8964   1423.66211     598.5398     569.8964
   1423.64685     598.5173     571.0692   1423.64685     598.5173     571.0692
   1423.63159     598.1573     570.5432   1423.63159     598.1573     570.5432
   1423.61633     598.6020     570.6336   1423.61633     598.6020     570.6336
   1423.60107     598.9575     569.4044   1423.60107     598.9575     569.4044
   1423.58582     598.4482     569.3578   1423.58582     598.4482     569.3578
   1423.57056     597.2819     569.8464   1423.57056     597.2819     569.8464
   1423.55530     597.1352     569.7343   1423.55530     597.1352     569.7343
   1423.54004     597.9693     569.1941   1423.54004     597.9693     569.1941
   1423.52478     597.6956     569.9680   1423.52478     597.6956     569.9680
   1423.50952     597.6729     568.9319   1423.50952     597.6729     568.9319
   1423.49426     596.9837     569.4132   1423.49426     596.9837     569.4132
   1423.47900     596.8998     568.9478   1423.47900     596.8998     568.9478
   1423.46375     597.0433     569.7607   1423.46375     597.0433     569.7607
   1423.44849     596.7761     568.5211   1423.44849     596.7761     568.5211
   1423.43323     596.4252     567.4131   1423.43323     596.4252     567.4131
   1423.41797     596.7277     568.7610   1423.41797     596.7277     568.7610
   1423.40271     596.0624     567.4370   1423.40271     596.0624     567.4370
   1423.38745     595.5702     567.0468   1423.38745     595.5702     567.0468
   1423.37219     595.5742     567.7324   1423.37219     595.5742     567.7324
   1423.35693     594.8371     567.8033   1423.35693     594.8371     567.8033
   1423.34167     594.2343     566.8302   1423.34167     594.2343     566.8302
   1423.32642     594.3998     566.0302   1423.32642     594.3998     566.0302
   1423.31116     594.5124     566.3601   1423.31116     594.5124     566.3601
   1423.29590     594.2083     564.7117   1423.29590     594.2083     564.7117
   1423.28064     595.1871     565.0858   1423.28064     595.1871     565.0858
   1423.26538     594.7033     564.3324   1423.26538     594.7033     564.3324
   1423.25012     593.6801     564.9153   1423.25012     593.6801     564.9153
   1423.23486     593.4642     563.4374   1423.23486     593.4642     563.4374
   1423.21960     593.5264     563.7481   1423.21960     593.5264     563.7481
   1423.20435     593.9523     562.3779   1423.20435     593.9523     562.3779
   1423.18909     593.6322     561.7670   1423.18909     593.6322     561.7670
   1423.17383     593.5187     561.2781   1423.17383     593.5187     561.2781
   1423.15857     593.4924     561.2392   1423.15857     593.4924     561.2392
   1423.14331     592.6774     561.2929   1423.14331     592.6774     561.2929
   1423.12805     593.3734     560.5815   1423.12805     593.3734     560.5815
   1423.11279     592.3175     559.8339   1423.11279     592.3175     559.8339
   1423.09753     592.0944     559.5652   1423.09753     592.0944     559.5652
   1423.08228     592.6312     557.2657   1423.08228     592.6312     557.2657
   1423.06702     591.9156     558.0916   1423.06702     591.9156     558.0916
   1423.05176     590.9044     557.4164   1423.05176     590.9044     557.4164
   1423.03650     590.9249     555.5702   1423.03650     590.9249     555.5702
   1423.02124     591.4794     555.0982   1423.02124     591.4794     555.0982
   1423.00598     590.2411     554.8143   1423.00598     590.2411     554.8143
   1422.99072     591.0439     554.3156   1422.99072     591.0439     554.3156
   1422.97546     591.3490     553.4613   1422.97546     591.3490     553.4613
   1422.96021     591.1925     552.6536   1422.96021     591.1925     552.6536
   1422.94495     591.0558     552.5399   1422.94495     591.0558     552.5399
   1422.92969     590.6557     551.6453   1422.92969     590.6557     551.6453
   1422.91443     588.9501     549.7440   1422.91443     588.9501     549.7440
   1422.89917     589.4553     549.2725   1422.89917     589.4553     549.2725
   1422.88391     589.4407     548.9777   1422.88391     589.4407     548.9777
   1422.86865     589.4969     547.9666   1422.86865     589.4969     547.9666
   1422.85339     589.6130     547.2498   1422.85339     589.6130     547.2498
   1422.83813     589.2771     545.7343   1422.83813     589.2771     545.7343
   1422.82288     589.2629     545.4517   1422.82288     589.2629     545.4517
   1422.80762     588.6688     544.2431   1422.80762     588.6688     544.2431
   1422.79236     588.7582     542.7186   1422.79236     588.7582     542.7186
   1422.77710     587.5800     542.4631   1422.77710     587.5800     542.4631
   1422.76184     588.8083     542.1817   1422.76184     588.8083     542.1817
   1422.74658     587.0506     540.4027   1422.74658     587.0506     540.4027
   1422.73132     587.6542     539.2369   1422.73132     587.6542     539.2369
   1422.71606     587.8992     538.3932   1422.71606     587.8992     538.3932
   1422.70081     587.9180     537.4587   1422.70081     587.9180     537.4587
   1422.68555     587.0492     537.1282   1422.68555     587.0492     537.1282
   1422.67029     587.7009     535.2618   1422.67029     587.7009     535.2618
   1422.65503     587.4263     535.1688   1422.65503     587.4263     535.1688
   1422.63977     586.2424     533.5244   1422.63977     586.2424     533.5244
   1422.62451     586.5676     532.0092   1422.62451     586.5676     532.0092
   1422.60925     586.6839     532.6841   1422.60925     586.6839     532.6841
   1422.59399     585.4731     530.6341   1422.59399     585.4731     530.6341
   1422.57874     586.0715     529.0930   1422.57874     586.0715     529.0930
   1422.56348     586.9111     528.0129   1422.56348     586.9111     528.0129
   1422.54822     586.2995     526.4224   1422.54822     586.2995     526.4224
   1422.53296     585.2014     526.3294   1422.53296     585.2014     526.3294
   1422.51770     585.2728     524.1945   1422.51770     585.2728     524.1945
   1422.50244     585.2239     523.2512   1422.50244     585.2239     523.2512
   1422.48718     583.7211     522.0287   1422.48718     583.7211     522.0287
   1422.47192     586.0235     521.8982   1422.47192     586.0235     521.8982
   1422.45667     584.5645     520.3489   1422.45667     584.5645     520.3489
   1422.44141     582.9639     519.3660   1422.44141     582.9639     519.3660
   1422.42615     583.2461     518.6611   1422.42615     583.2461     518.6611
   1422.41089     584.2763     516.6700   1422.41089     584.2763     516.6700
   1422.39563     583.8079     515.4634   1422.39563     583.8079     515.4634
   1422.38037     583.8564     513.9230   1422.38037     583.8564     513.9230
   1422.36511     583.3824     513.3542   1422.36511     583.3824     513.3542
   1422.34985     582.3676     512.0647   1422.34985     582.3676     512.0647
   1422.33459     582.6007     510.9325   1422.33459     582.6007     510.9325
   1422.31934     582.8624     509.1838   1422.31934     582.8624     509.1838
   1422.30408     582.6406     507.2213   1422.30408     582.6406     507.2213
   1422.28882     583.2711     507.3326   1422.28882     583.2711     507.3326
   1422.27356     582.2726     505.7497   1422.27356     582.2726     505.7497
   1422.25830     582.3757     504.5504   1422.25830     582.3757     504.5504
   1422.24304     583.7139     504.6889   1422.24304     583.7139     504.6889
   1422.22778     582.3013     502.1782   1422.22778     582.3013     502.1782
   1422.21252     581.6580     500.8079   1422.21252     581.6580     500.8079
   1422.19727     581.9190     499.8329   1422.19727     581.9190     499.8329
   1422.18201     581.9328     498.6436   1422.18201     581.9328     498.6436
   1422.16675     581.1364     496.5092   1422.16675     581.1364     496.5092
   1422.15149     581.7726     495.0867   1422.15149     581.7726     495.0867
   1422.13623     580.7243     494.2198   1422.13623     580.7243     494.2198
   1422.12097     581.0737     492.8831   1422.12097     581.0737     492.8831
   1422.10571     581.2298     491.6697   1422.10571     581.2298     491.6697
   1422.09045     580.1606     490.8717   1422.09045     580.1606     490.8717
   1422.07520     579.1350     489.5098   1422.07520     579.1350     489.5098
   1422.05994     579.5472     487.6599   1422.05994     579.5472     487.6599
   1422.04468     580.2379     486.1458   1422.04468     580.2379     486.1458
   1422.02942     579.8270     485.3958   1422.02942     579.8270     485.3958
   1422.01416     578.8531     483.7947   1422.01416     578.8531     483.7947
   1421.99890     578.5629     484.0594   1421.99890     578.5629     484.0594
   1421.98364     578.4055     481.9731   1421.98364     578.4055     481.9731
   1421.96838     579.2985     479.8705   1421.96838     579.2985     479.8705
   1421.95312     578.5806     478.5721   1421.95312     578.5806     478.5721
   1421.93787     577.1756     477.6895   1421.93787     577.1756     477.6895
   1421.92261     577.8984     476.7945   1421.92261     577.8984     476.7945
   1421.90735     577.5958     474.9326   1421.90735     577.5958     474.9326
   1421.89209     577.0918     474.5979   1421.89209     577.0918     474.5979
   1421.87683     576.9632     473.0372   1421.87683     576.9632     473.0372
   1421.86157     575.8907     471.8599   1421.86157     575.8907     471.8599
   1421.84631     577.9247     469.9508   1421.84631     577.9247     469.9508
   1421.83105     576.2582     469.1682   1421.83105     576.2582     469.1682
   1421.81580     576.5479     466.9116   1421.81580     576.5479     466.9116
   1421.80054     576.4834     466.7509   1421.80054     576.4834     466.7509
   1421.78528     575.8267     464.7503   1421.78528     575.8267     464.7503
   1421.77002     575.2813     463.9764   1421.77002     575.2813     463.9764
   1421.75476     575.7739     462.7973   1421.75476     575.7739     462.7973
   1421.73950     574.8313     461.5631   1421.73950     574.8313     461.5631
   1421.72424     576.1146     460.5015   1421.72424     576.1146     460.5015
   1421.70898     575.7921     458.6052   1421.70898     575.7921     458.6052
   1421.69373     575.0093     458.0469   1421.69373     575.0093     458.0469
   1421.67847     575.0184     456.5841   1421.67847     575.0184     456.5841
   1421.66321     574.4263     455.6101   1421.66321     574.4263     455.6101
   1421.64795     573.6674     453.9711   1421.64795     573.6674     453.9711
   1421.63269     574.5979     452.7775   1421.63269     574.5979     452.7775
   1421.61743     573.3657     451.2354   1421.61743     573.3657     451.2354
   1421.60217     573.3057     449.6738   1421.60217     573.3057     449.6738
   1421.58691     573.6105     448.6158   1421.58691     573.6105     448.6158
   1421.57166     572.5111     447.4447   1421.57166     572.5111     447.4447
   1421.55640     572.9496     446.0167   1421.55640     572.9496     446.0167
   1421.54114     573.3666     444.8270   1421.54114     573.3666     444.8270
   1421.52588     572.8867     443.7641   1421.52588     572.8867     443.7641
   1421.51062     572.8121     443.0172   1421.51062     572.8121     443.0172
   1421.49536     572.2576     441.8328   1421.49536     572.2576     441.8328
   1421.48010     572.4980     441.0126   1421.48010     572.4980     441.0126
   1421.46484     572.2361     438.6376   1421.46484     572.2361     438.6376
   1421.44958     571.6964     437.9026   1421.44958     571.6964     437.9026
   1421.43433     570.5899     437.2721   1421.43433     570.5899     437.2721
   1421.41907     570.8099     436.1135   1421.41907     570.8099     436.1135
   1421.40381     569.6673     436.0148   1421.40381     569.6673     436.0148
   1421.38855     570.7225     434.1195   1421.38855     570.7225     434.1195
   1421.37329     570.7274     432.8853   1421.37329     570.7274     432.8853
   1421.35803     570.4407     431.5771   1421.35803     570.4407     431.5771
   1421.34277     570.2770     430.1832   1421.34277     570.2770     430.1832
   1421.32751     569.0439     429.7433   1421.32751     569.0439     429.7433
   1421.31226     570.0674     428.5768   1421.31226     570.0674     428.5768
   1421.29700     569.7062     428.3022   1421.29700     569.7062     428.3022
   1421.28174     569.1023     425.8696   1421.28174     569.1023     425.8696
   1421.26648     568.8032     424.7057   1421.26648     568.8032     424.7057
   1421.25122     568.2329     423.9301   1421.25122     568.2329     423.9301
   1421.23596     568.5972     422.9526   1421.23596     568.5972     422.9526
   1421.22070     568.6001     421.6826   1421.22070     568.6001     421.6826
   1421.20544     568.5162     420.8639   1421.20544     568.5162     420.8639
   1421.19019     567.7736     420.1029   1421.19019     567.7736     420.1029
   1421.17493     568.3111     419.0668   1421.17493     568.3111     419.0668
   1421.15967     567.7037     416.7976   1421.15967     567.7037     416.7976
   1421.14441     567.0959     416.2235   1421.14441     567.0959     416.2235
   1421.12915     568.3675     415.4634   1421.12915     568.3675     415.4634
   1421.11389     566.7889     414.8530   1421.11389     566.7889     414.8530
   1421.09863     566.5269     413.8113   1421.09863     566.5269     413.8113
   1421.08337     566.2170     413.0147   1421.08337     566.2170     413.0147
   1421.06812     565.7762     411.7536   1421.06812     565.7762     411.7536
   1421.05286     565.1930     410.9155   1421.05286     565.1930     410.9155
   1421.03760     566.4462     410.0015   1421.03760     566.4462     410.0015
   1421.02234     565.5519     409.0096   1421.02234     565.5519     409.0096
   1421.00708     565.3293     407.9863   1421.00708     565.3293     407.9863
   1420.99182     563.9723     407.2737   1420.99182     563.9723     407.2737
   1420.97656     565.4293     406.0280   1420.97656     565.4293     406.0280
   1420.96130     564.8719     405.1614   1420.96130     564.8719     405.1614
   1420.94604     564.6466     404.5491   1420.94604     564.6466     404.5491
   1420.93079     565.5477     403.5738   1420.93079     565.5477     403.5738
   1420.91553     564.8873     402.6136   1420.91553     564.8873     402.6136
   1420.90027     564.2065     401.0511   1420.90027     564.2065     401.0511
   1420.88501     563.0546     400.9572   1420.88501     563.0546     400.9572
   1420.86975     564.2047     400.0006   1420.86975     564.2047     400.0006
   1420.85449     563.6458     398.9444   1420.85449     563.6458     398.9444
   1420.83923     564.0055     398.1790   1420.83923     564.0055     398.1790
   1420.82397     563.4142     397.0617   1420.82397     563.4142     397.0617
   1420.80872     564.3979     396.5765   1420.80872     564.3979     396.5765
   1420.79346     563.2162     396.2379   1420.79346     563.2162     396.2379
   1420.77820     563.5725     395.3039   1420.77820     563.5725     395.3039
   1420.76294     563.9467     395.0586   1420.76294     563.9467     395.0586
   1420.74768     563.4606     393.3662   1420.74768     563.4606     393.3662
   1420.73242     563.4938     393.4785   1420.73242     563.4938     393.4785
   1420.71716     563.4523     391.8657   1420.71716     563.4523     391.8657
   1420.70190     562.7369     391.2450   1420.70190     562.7369     391.2450
   1420.68665     562.6851     390.4468   1420.68665     562.6851     390.4468
   1420.67139     563.2999     389.7960   1420.67139     563.2999     389.7960
   1420.65613     563.2653     388.8806   1420.65613     563.2653     388.8806
   1420.64087     563.2415     387.6145   1420.64087     563.2415     387.6145
   1420.62561     562.8393     387.4559   1420.62561     562.8393     387.4559
   1420.61035     563.7841     386.6495   1420.61035     563.7841     386.6495
   1420.59509     563.1957     386.4331   1420.59509     563.1957     386.4331
   1420.57983     562.7722     385.9886   1420.57983     562.7722     385.9886
   1420.56458     564.3977     385.3087   1420.56458     564.3977     385.3087
   1420.54932     564.5902     385.2500   1420.54932     564.5902     385.2500
   1420.53406     564.8002     385.3476   1420.53406     564.8002     385.3476
   1420.51880     565.7241     385.5465   1420.51880     565.7241     385.5465
   1420.50354     565.8626     384.0779   1420.50354     565.8626     384.0779
   1420.48828     565.4414     383.4861   1420.48828     565.4414     383.4861
   1420.47302     566.3790     383.0426   1420.47302     566.3790     383.0426
   1420.45776     564.8570     381.8947   1420.45776     564.8570     381.8947
   1420.44250     564.3924     381.0036   1420.44250     564.3924     381.0036
   1420.42725     564.9208     380.5838   1420.42725     564.9208     380.5838
   1420.41199     564.1337     379.8197   1420.41199     564.1337     379.8197
   1420.39673     564.5257     378.0309   1420.39673     564.5257     378.0309
   1420.38147     563.2038     378.0504   1420.38147     563.2038     378.0504
   1420.36621     563.0662     377.3274   1420.36621     563.0662     377.3274
   1420.35095     563.8394     377.5977   1420.35095     563.8394     377.5977
   1420.33569     564.3700     377.2860   1420.33569     564.3700     377.2860
   1420.32043     565.6151     377.3124   1420.32043     565.6151     377.3124
   1420.30518     566.3425     377.5658   1420.30518     566.3425     377.5658
   1420.28992     570.3040     379.7864   1420.28992     570.3040     379.7864
   1420.27466     581.8292     386.9913   1420.27466     581.8292     386.9913
   1420.25940     615.3106     407.8930   1420.25940     615.3106     407.8930
   1420.24414     679.5596     447.3196   1420.24414     679.5596     447.3196
   1420.22888     709.8443     465.2466   1420.22888     709.8443     465.2466
   1420.21362     701.5547     460.3714   1420.21362     701.5547     460.3714
   1420.19836     703.6288     460.1686   1420.19836     703.6288     460.1686
   1420.18311     766.5243     498.9520   1420.18311     766.5243     498.9520
   1420.16785     943.9729     609.7563   1420.16785     943.9729     609.7563
   1420.15259    1251.3159     803.1396   1420.15259    1251.3159     803.1396
   1420.13733    1612.7302    1028.4911   1420.13733    1612.7302    1028.4911
   1420.12207    1496.5007     957.7681   1420.12207    1496.5007     957.7681
   1420.10681    1005.7480     647.9117   1420.10681    1005.7480     647.9117
   1420.09155     735.6433     476.6888   1420.09155     735.6433     476.6888
   1420.07629     643.8557     419.0413   1420.07629     643.8557     419.0413
   1420.06104     609.1169     396.6997   1420.06104     609.1169     396.6997
   1420.04578     599.1063     390.2049   1420.04578     599.1063     390.2049
   1420.03052     603.9706     392.1404   1420.03052     603.9706     392.1404
   1420.01526     629.7468     405.8094   1420.01526     629.7468     405.8094
   1420.00000     715.4502     460.2812   1420.00000     715.4502     460.2812
   1419.98474     801.1538     514.7531   1419.98474     801.1538     514.7531
   1419.96948     991.9547     632.2379   1419.96948     991.9547     632.2379
   1419.95422    1171.1251     740.0137   1419.95422    1171.1251     740.0137
   1419.93896    1285.4900     811.1466   1419.93896    1285.4900     811.1466
   1419.92371    1310.2579     825.0477   1419.92371    1310.2579     825.0477
   1419.90845    1292.8989     814.8994   1419.90845    1292.8989     814.8994
   1419.89319    1166.9827     733.9935   1419.89319    1166.9827     733.9935
   1419.87793    1029.2302     652.4610   1419.87793    1029.2302     652.4610
   1419.86267     994.6350     628.5994   1419.86267     994.6350     628.5994
   1419.84741    1058.5112     670.1180   1419.84741    1058.5112     670.1180
   1419.83215    1105.7886     696.1136   1419.83215    1105.7886     696.1136
   1419.81689    1084.6881     681.4452   1419.81689    1084.6881     681.4452
   1419.80164     993.4194     625.9564   1419.80164     993.4194     625.9564
   1419.78638     876.3104     552.4025   1419.78638     876.3104     552.4025
   1419.77112     788.4089     497.5542   1419.77112     788.4089     497.5542
   1419.75586     722.4058     458.2299   1419.75586     722.4058     458.2299
   1419.74060     679.5915     431.3764   1419.74060     679.5915     431.3764
   1419.72534     652.1686     413.9899   1419.72534     652.1686     413.9899
   1419.71008     632.3794     401.9481   1419.71008     632.3794     401.9481
   1419.69482     617.7589     392.2785   1419.69482     617.7589     392.2785
   1419.67957     605.0341     384.3412   1419.67957     605.0341     384.3412
   1419.66431     592.2681     376.1963   1419.66431     592.2681     376.1963
   1419.64905     583.1387     369.6813   1419.64905     583.1387     369.6813
   1419.63379     574.4021     365.3968   1419.63379     574.4021     365.3968
   1419.61853     568.2938     360.3347   1419.61853     568.2938     360.3347
   1419.60327     565.3243     358.0234   1419.60327     565.3243     358.0234
   1419.58801     561.0803     356.0009   1419.58801     561.0803     356.0009
   1419.57275     560.2952     354.8390   1419.57275     560.2952     354.8390
   1419.55750     560.1604     354.1717   1419.55750     560.1604     354.1717
   1419.54224     559.0818     353.8671   1419.54224     559.0818     353.8671
   1419.52698     559.0211     352.9568   1419.52698     559.0211     352.9568
   1419.51172     559.0928     352.6566   1419.51172     559.0928     352.6566
   1419.49646     559.2846     352.8044   1419.49646     559.2846     352.8044
   1419.48120     558.7095     353.1891   1419.48120     558.7095     353.1891
   1419.46594     558.3881     352.5366   1419.46594     558.3881     352.5366
   1419.45068     559.9589     352.2061   1419.45068     559.9589     352.2061
   1419.43542     560.3598     352.2049   1419.43542     560.3598     352.2049
   1419.42017     560.2700     351.7354   1419.42017     560.2700     351.7354
   1419.40491     560.1497     352.2101   1419.40491     560.1497     352.2101
   1419.38965     559.7045     352.3918   1419.38965     559.7045     352.3918
   1419.37439     560.5317     351.8024   1419.37439     560.5317     351.8024
   1419.35913     560.8981     351.3922   1419.35913     560.8981     351.3922
   1419.34387     560.5812     351.5053   1419.34387     560.5812     351.5053
   1419.32861     561.1814     351.8755   1419.32861     561.1814     351.8755
   1419.31335     561.2456     351.4084   1419.31335     561.2456     351.4084
   1419.29810     561.1274     351.0656   1419.29810     561.1274     351.0656
   1419.28284     561.9921     351.6926   1419.28284     561.9921     351.6926
   1419.26758     563.4965     351.9427   1419.26758     563.4965     351.9427
   1419.25232     563.2313     351.6508   1419.25232     563.2313     351.6508
   1419.23706     563.1721     351.5617   1419.23706     563.1721     351.5617
   1419.22180     563.6921     351.9261   1419.22180     563.6921     351.9261
   1419.20654     562.9724     351.6115   1419.20654     562.9724     351.6115
   1419.19128     564.5394     351.4085   1419.19128     564.5394     351.4085
   1419.17603     564.0058     351.3819   1419.17603     564.0058     351.3819
   1419.16077     563.9906     352.1314   1419.16077     563.9906     352.1314
   1419.14551     565.4386     351.9564   1419.14551     565.4386     351.9564
   1419.13025     564.6157     352.1365   1419.13025     564.6157     352.1365
   1419.11499     566.2604     351.7179   1419.11499     566.2604     351.7179
   1419.09973     565.4387     352.0038   1419.09973     565.4387     352.0038
   1419.08447     566.9643     352.1254   1419.08447     566.9643     352.1254
   1419.06921     567.1302     351.9449   1419.06921     567.1302     351.9449
   1419.05396     567.1624     351.7518   1419.05396     567.1624     351.7518
   1419.03870     567.2570     351.8915   1419.03870     567.2570     351.8915
   1419.02344     568.8290     352.0862   1419.02344     568.8290     352.0862
   1419.00818     568.7318     352.2573   1419.00818     568.7318     352.2573
   1418.99292     568.8539     352.6349   1418.99292     568.8539     352.6349
   1418.97766     569.7078     353.0144   1418.97766     569.7078     353.0144
   1418.96240     570.2389     352.9542   1418.96240     570.2389     352.9542
   1418.94714     570.8638     353.1440   1418.94714     570.8638     353.1440
   1418.93188     571.7241     353.6939   1418.93188     571.7241     353.6939
   1418.91663     571.3058     353.6464   1418.91663     571.3058     353.6464
   1418.90137     572.0405     354.1610   1418.90137     572.0405     354.1610
   1418.88611     572.4682     353.5569   1418.88611     572.4682     353.5569
   1418.87085     573.5322     354.4663   1418.87085     573.5322     354.4663
   1418.85559     574.8488     354.8077   1418.85559     574.8488     354.8077
   1418.84033     575.3130     354.1989   1418.84033     575.3130     354.1989
   1418.82507     574.4501     354.5678   1418.82507     574.4501     354.5678
   1418.80981     575.6767     355.3007   1418.80981     575.6767     355.3007
   1418.79456     575.0997     355.0387   1418.79456     575.0997     355.0387
   1418.77930     576.1709     355.0034   1418.77930     576.1709     355.0034
   1418.76404     577.3516     356.0533   1418.76404     577.3516     356.0533
   1418.74878     577.7209     355.9439   1418.74878     577.7209     355.9439
   1418.73352     577.5410     355.9146   1418.73352     577.5410     355.9146
   1418.71826     578.2944     356.7057   1418.71826     578.2944     356.7057
   1418.70300     579.5546     357.1066   1418.70300     579.5546     357.1066
   1418.68774     581.0040     356.8126   1418.68774     581.0040     356.8126
   1418.67249     581.0890     357.5369   1418.67249     581.0890     357.5369
   1418.65723     581.5754     357.9626   1418.65723     581.5754     357.9626
   1418.64197     581.2516     357.5643   1418.64197     581.2516     357.5643
   1418.62671     582.7108     357.6691   1418.62671     582.7108     357.6691
   1418.61145     583.2999     358.0215   1418.61145     583.2999     358.0215
   1418.59619     583.9431     359.0966   1418.59619     583.9431     359.0966
   1418.58093     584.4680     359.3551   1418.58093     584.4680     359.3551
   1418.56567     585.3793     359.4905   1418.56567     585.3793     359.4905
   1418.55042     586.4827     359.8584   1418.55042     586.4827     359.8584
   1418.53516     586.7673     359.0742   1418.53516     586.7673     359.0742
   1418.51990     587.7469     360.4234   1418.51990     587.7469     360.4234
   1418.50464     587.9904     360.0584   1418.50464     587.9904     360.0584
   1418.48938     588.7328     360.6006   1418.48938     588.7328     360.6006
   1418.47412     589.5029     360.9930   1418.47412     589.5029     360.9930
   1418.45886     591.6339     361.4998   1418.45886     591.6339     361.4998
   1418.44360     591.1653     361.5701   1418.44360     591.1653     361.5701
   1418.42834     592.5125     362.3016   1418.42834     592.5125     362.3016
   1418.41309     591.8136     362.8655   1418.41309     591.8136     362.8655
   1418.39783     593.5402     362.8588   1418.39783     593.5402     362.8588
   1418.38257     594.2244     363.5355   1418.38257     594.2244     363.5355
   1418.36731     594.1191     363.8511   1418.36731     594.1191     363.8511
   1418.35205     595.2855     364.5983   1418.35205     595.2855     364.5983
   1418.33679     597.0130     364.9360   1418.33679     597.0130     364.9360
   1418.32153     598.6365     365.2035   1418.32153     598.6365     365.2035
   1418.30627     598.5696     365.6075   1418.30627     598.5696     365.6075
   1418.29102     599.6019     365.7940   1418.29102     599.6019     365.7940
   1418.27576     599.7923     366.4723   1418.27576     599.7923     366.4723
   1418.26050     600.6638     366.8020   1418.26050     600.6638     366.8020
   1418.24524     601.8171     367.4319   1418.24524     601.8171     367.4319
   1418.22998     603.4472     367.8713   1418.22998     603.4472     367.8713
   1418.21472     602.8839     367.6843   1418.21472     602.8839     367.6843
   1418.19946     604.4224     367.8527   1418.19946     604.4224     367.8527
   1418.18420     605.8286     369.2906   1418.18420     605.8286     369.2906
   1418.16895     606.0723     369.4311   1418.16895     606.0723     369.4311
   1418.15369     608.1695     369.3981   1418.15369     608.1695     369.3981
   1418.13843     607.8839     370.7755   1418.13843     607.8839     370.7755
   1418.12317     608.8522     370.9895   1418.12317     608.8522     370.9895
   1418.10791     609.7870     371.2574   1418.10791     609.7870     371.2574
   1418.09265     611.1442     371.4560   1418.09265     611.1442     371.4560
   1418.07739     610.9824     371.7294   1418.07739     610.9824     371.7294
   1418.06213     612.6444     372.7280   1418.06213     612.6444     372.7280
   1418.04688     613.9138     373.5042   1418.04688     613.9138     373.5042
   1418.03162     615.0356     374.1407   1418.03162     615.0356     374.1407
   1418.01636     615.2628     374.1467   1418.01636     615.2628     374.1467
   1418.00110     616.1686     375.1330   1418.00110     616.1686     375.1330
   1417.98584     617.6473     375.3427   1417.98584     617.6473     375.3427
   1417.97058     618.5866     375.2898   1417.97058     618.5866     375.2898
   1417.95532     619.5145     376.4924   1417.95532     619.5145     376.4924
   1417.94006     620.4346     376.7169   1417.94006     620.4346     376.7169
   1417.92480     620.7708     376.7442   1417.92480     620.7708     376.7442
   1417.90955     621.6037     377.1635   1417.90955     621.6037     377.1635
   1417.89429     622.9690     378.0879   1417.89429     622.9690     378.0879
   1417.87903     624.4313     378.0293   1417.87903     624.4313     378.0293
   1417.86377     625.2768     379.3881   1417.86377     625.2768     379.3881
   1417.84851     626.1155     379.7589   1417.84851     626.1155     379.7589
   1417.83325     626.6724     380.9220   1417.83325     626.6724     380.9220
   1417.81799     627.7899     380.2597   1417.81799     627.7899     380.2597
   1417.80273     629.9573     381.3392   1417.80273     629.9573     381.3392
   1417.78748     631.2310     381.8901   1417.78748     631.2310     381.8901
   1417.77222     631.1117     382.0743   1417.77222     631.1117     382.0743
   1417.75696     632.7504     383.4777   1417.75696     632.7504     383.4777
   1417.74170     633.8064     383.2540   1417.74170     633.8064     383.2540
   1417.72644     634.3246     383.9281   1417.72644     634.3246     383.9281
   1417.71118     634.6163     383.6700   1417.71118     634.6163     383.6700
   1417.69592     635.6119     385.2404   1417.69592     635.6119     385.2404
   1417.68066     636.2015     385.1432   1417.68066     636.2015     385.1432
   1417.66541     637.8310     385.8398   1417.66541     637.8310     385.8398
   1417.65015     638.5484     386.4972   1417.65015     638.5484     386.4972
   1417.63489     640.5002     386.5715   1417.63489     640.5002     386.5715
   1417.61963     641.5214     387.7618   1417.61963     641.5214     387.7618
   1417.60437     642.9006     387.9405   1417.60437     642.9006     387.9405
   1417.58911     642.1682     388.6152   1417.58911     642.1682     388.6152
   1417.57385     643.6376     389.4040   1417.57385     643.6376     389.4040
   1417.55859     645.0530     389.8293   1417.55859     645.0530     389.8293
   1417.54333     646.8724     390.3017   1417.54333     646.8724     390.3017
   1417.52808     647.0146     390.7140   1417.52808     647.0146     390.7140
   1417.51282     648.5009     391.2288   1417.51282     648.5009     391.2288
   1417.49756     648.4279     391.6948   1417.49756     648.4279     391.6948
   1417.48230     649.0597     392.3830   1417.48230     649.0597     392.3830
   1417.46704     650.9258     392.3821   1417.46704     650.9258     392.3821
   1417.45178     652.0443     393.3581   1417.45178     652.0443     393.3581
   1417.43652     652.4195     394.2772   1417.43652     652.4195     394.2772
   1417.42126     654.0175     394.7961   1417.42126     654.0175     394.7961
   1417.40601     654.4716     395.4641   1417.40601     654.4716     395.4641
   1417.39075     655.9339     395.6150   1417.39075     655.9339     395.6150
   1417.37549     656.7321     396.2128   1417.37549     656.7321     396.2128
   1417.36023     657.5216     396.2974   1417.36023     657.5216     396.2974
   1417.34497     658.8651     397.3147   1417.34497     658.8651     397.3147
   1417.32971     659.0134     398.0371   1417.32971     659.0134     398.0371
   1417.31445     661.1676     398.0238   1417.31445     661.1676     398.0238
   1417.29919     661.0884     398.4064   1417.29919     661.0884     398.4064
   1417.28394     662.0135     398.8099   1417.28394     662.0135     398.8099
   1417.26868     662.6846     400.2885   1417.26868     662.6846     400.2885
   1417.25342     663.1303     399.5605   1417.25342     663.1303     399.5605
   1417.23816     664.4072     400.9826   1417.23816     664.4072     400.9826
   1417.22290     665.4373     401.5712   1417.22290     665.4373     401.5712
   1417.20764     666.5607     401.4069   1417.20764     666.5607     401.4069
   1417.19238     668.7953     402.7122   1417.19238     668.7953     402.7122
   1417.17712     668.5376     401.8806   1417.17712     668.5376     401.8806
   1417.16187     669.2231     402.9431   1417.16187     669.2231     402.9431
   1417.14661     669.7932     403.8621   1417.14661     669.7932     403.8621
   1417.13135     671.1312     403.6494   1417.13135     671.1312     403.6494
   1417.11609     670.6058     404.6825   1417.11609     670.6058     404.6825
   1417.10083     671.7144     405.0046   1417.10083     671.7144     405.0046
   1417.08557     673.5301     405.5235   1417.08557     673.5301     405.5235
   1417.07031     674.0530     406.1815   1417.07031     674.0530     406.1815
   1417.05505     675.2396     405.9406   1417.05505     675.2396     405.9406
   1417.03979     676.2154     406.9870   1417.03979     676.2154     406.9870
   1417.02454     675.8509     406.6241   1417.02454     675.8509     406.6241
   1417.00928     676.4436     407.0395   1417.00928     676.4436     407.0395
   1416.99402     678.1562     407.9527   1416.99402     678.1562     407.9527
   1416.97876     678.5512     407.7456   1416.97876     678.5512     407.7456
   1416.96350     678.7374     408.6125   1416.96350     678.7374     408.6125
   1416.94824     679.7286     408.9434   1416.94824     679.7286     408.9434
   1416.93298     679.8387     409.4647   1416.93298     679.8387     409.4647
   1416.91772     680.4485     409.7179   1416.91772     680.4485     409.7179
   1416.90247     681.2358     409.8514   1416.90247     681.2358     409.8514
   1416.88721     681.6957     410.1105   1416.88721     681.6957     410.1105
   1416.87195     681.2078     409.8428   1416.87195     681.2078     409.8428
   1416.85669     683.4528     410.3339   1416.85669     683.4528     410.3339
   1416.84143     684.2719     411.5662   1416.84143     684.2719     411.5662
   1416.82617     683.2376     411.1572   1416.82617     683.2376     411.1572
   1416.81091     685.7447     412.1239   1416.81091     685.7447     412.1239
   1416.79565     684.7087     412.9047   1416.79565     684.7087     412.9047
   1416.78040     685.2821     412.0843   1416.78040     685.2821     412.0843
   1416.76514     686.0285     412.7694   1416.76514     686.0285     412.7694
   1416.74988     685.9620     412.6728   1416.74988     685.9620     412.6728
   1416.73462     685.6163     413.1898   1416.73462     685.6163     413.1898
   1416.71936     685.4888     413.1753   1416.71936     685.4888     413.1753
   1416.70410     688.2748     413.5263   1416.70410     688.2748     413.5263
   1416.68884     687.0009     413.4037   1416.68884     687.0009     413.4037
   1416.67358     688.1573     414.0269   1416.67358     688.1573     414.0269
   1416.65833     688.3470     414.3477   1416.65833     688.3470     414.3477
   1416.64307     689.3551     414.8719   1416.64307     689.3551     414.8719
   1416.62781     688.8978     414.6154   1416.62781     688.8978     414.6154
   1416.61255     690.0075     414.9136   1416.61255     690.0075     414.9136
   1416.59729     689.3690     415.2992   1416.59729     689.3690     415.2992
   1416.58203     690.4651     414.7878   1416.58203     690.4651     414.7878
   1416.56677     689.9064     415.3519   1416.56677     689.9064     415.3519
   1416.55151     690.5834     415.0665   1416.55151     690.5834     415.0665
   1416.53625     690.9066     415.0901   1416.53625     690.9066     415.0901
   1416.52100     690.3789     415.7312   1416.52100     690.3789     415.7312
   1416.50574     689.8404     415.2930   1416.50574     689.8404     415.2930
   1416.49048     690.0630     415.4193   1416.49048     690.0630     415.4193
   1416.47522     690.7614     415.3340   1416.47522     690.7614     415.3340
   1416.45996     689.9092     415.6094   1416.45996     689.9092     415.6094
   1416.44470     689.9353     415.7147   1416.44470     689.9353     415.7147
   1416.42944     690.2125     415.3229   1416.42944     690.2125     415.3229
   1416.41418     690.8983     415.4933   1416.41418     690.8983     415.4933
   1416.39893     689.0767     415.1618   1416.39893     689.0767     415.1618
   1416.38367     689.3451     415.2234   1416.38367     689.3451     415.2234
   1416.36841     690.1113     415.4929   1416.36841     690.1113     415.4929
   1416.35315     690.5891     415.6110   1416.35315     690.5891     415.6110
   1416.33789     689.0848     415.2087   1416.33789     689.0848     415.2087
   1416.32263     689.4722     415.3288   1416.32263     689.4722     415.3288
   1416.30737     688.7038     415.0374   1416.30737     688.7038     415.0374
   1416.29211     689.4507     414.6305   1416.29211     689.4507     414.6305
   1416.27686     687.5287     415.9326   1416.27686     687.5287     415.9326
   1416.26160     687.7701     414.7832   1416.26160     687.7701     414.7832
   1416.24634     688.5204     415.1353   1416.24634     688.5204     415.1353
   1416.23108     687.6835     415.0289   1416.23108     687.6835     415.0289
   1416.21582     688.3967     416.2106   1416.21582     688.3967     416.2106
   1416.20056     686.8605     415.1204   1416.20056     686.8605     415.1204
   1416.18530     686.8105     414.2157   1416.18530     686.8105     414.2157
   1416.17004     687.4319     415.0236   1416.17004     687.4319     415.0236
   1416.15479     684.8085     414.7668   1416.15479     684.8085     414.7668
   1416.13953     686.4244     413.8404   1416.13953     686.4244     413.8404
   1416.12427     685.2258     413.8384   1416.12427     685.2258     413.8384
   1416.10901     685.1105     414.4280   1416.10901     685.1105     414.4280
   1416.09375     685.6610     414.1933   1416.09375     685.6610     414.1933
   1416.07849     684.4044     413.4211   1416.07849     684.4044     413.4211
   1416.06323     683.4182     413.1921   1416.06323     683.4182     413.1921
   1416.04797     683.4980     413.5189   1416.04797     683.4980     413.5189
   1416.03271     683.3862     413.4004   1416.03271     683.3862     413.4004
   1416.01746     682.6806     413.5200   1416.01746     682.6806     413.5200
   1416.00220     681.8098     412.9373   1416.00220     681.8098     412.9373
   1415.98694     680.7343     412.6568   1415.98694     680.7343     412.6568
   1415.97168     680.1920     412.5050   1415.97168     680.1920     412.5050
   1415.95642     680.6515     412.3225   1415.95642     680.6515     412.3225
   1415.94116     679.6448     412.0398   1415.94116     679.6448     412.0398
   1415.92590     677.9641     411.8634   1415.92590     677.9641     411.8634
   1415.91064     678.1285     411.4273   1415.91064     678.1285     411.4273
   1415.89539     678.4394     411.4672   1415.89539     678.4394     411.4672
   1415.88013     676.7971     410.9659   1415.88013     676.7971     410.9659
   1415.86487     677.6680     411.0524   1415.86487     677.6680     411.0524
   1415.84961     676.2078     410.5617   1415.84961     676.2078     410.5617
   1415.83435     677.8607     411.2444   1415.83435     677.8607     411.2444
   1415.81909     674.4662     410.5613   1415.81909     674.4662     410.5613
   1415.80383     672.6963     410.0114   1415.80383     672.6963     410.0114
   1415.78857     672.9732     409.8510   1415.78857     672.9732     409.8510
   1415.77332     671.7084     409.9076   1415.77332     671.7084     409.9076
   1415.75806     671.4695     409.3229   1415.75806     671.4695     409.3229
   1415.74280     671.4818     409.1534   1415.74280     671.4818     409.1534
   1415.72754     669.8317     409.1273   1415.72754     669.8317     409.1273
   1415.71228     669.8063     408.8082   1415.71228     669.8063     408.8082
   1415.69702     669.5937     408.9281   1415.69702     669.5937     408.9281
   1415.68176     667.7143     408.7076   1415.68176     667.7143     408.7076
   1415.66650     666.2682     408.1455   1415.66650     666.2682     408.1455
   1415.65125     666.1258     408.1757   1415.65125     666.1258     408.1757
   1415.63599     664.7816     407.1968   1415.63599     664.7816     407.1968
   1415.62073     664.5610     407.7750   1415.62073     664.5610     407.7750
   1415.60547     664.0060     406.3012   1415.60547     664.0060     406.3012
   1415.59021     662.0106     406.4223   1415.59021     662.0106     406.4223
   1415.57495     661.3981     406.0674   1415.57495     661.3981     406.0674
   1415.55969     660.0515     405.9443   1415.55969     660.0515     405.9443
   1415.54443     660.8401     406.0783   1415.54443     660.8401     406.0783
   1415.52917     659.3657     405.9338   1415.52917     659.3657     405.9338
   1415.51392     657.8829     405.1945   1415.51392     657.8829     405.1945
   1415.49866     656.6517     404.9815   1415.49866     656.6517     404.9815
   1415.48340     656.2822     405.1677   1415.48340     656.2822     405.1677
   1415.46814     655.4767     404.7068   1415.46814     655.4767     404.7068
   1415.45288     656.1668     406.3298   1415.45288     656.1668     406.3298
   1415.43762     653.2206     403.6086   1415.43762     653.2206     403.6086
   1415.42236     652.8074     403.4137   1415.42236     652.8074     403.4137
   1415.40710     650.6210     403.5190   1415.40710     650.6210     403.5190
   1415.39185     650.0289     403.3420   1415.39185     650.0289     403.3420
   1415.37659     648.3727     402.6124   1415.37659     648.3727     402.6124
   1415.36133     648.4111     402.0410   1415.36133     648.4111     402.0410
   1415.34607     647.0781     402.1086   1415.34607     647.0781     402.1086
   1415.33081     646.0503     401.3394   1415.33081     646.0503     401.3394
   1415.31555     643.7305     401.7035   1415.31555     643.7305     401.7035
   1415.30029     643.6769     400.9119   1415.30029     643.6769     400.9119
   1415.28503     642.7373     400.2059   1415.28503     642.7373     400.2059
   1415.26978     642.3868     400.2315   1415.26978     642.3868     400.2315
   1415.25452     639.3203     400.0557   1415.25452     639.3203     400.0557
   1415.23926     638.7459     399.8264   1415.23926     638.7459     399.8264
   1415.22400     637.6207     399.1181   1415.22400     637.6207     399.1181
   1415.20874     635.7681     398.0581   1415.20874     635.7681     398.0581
   1415.19348     634.4248     398.4921   1415.19348     634.4248     398.4921
   1415.17822     634.1541     397.8709   1415.17822     634.1541     397.8709
   1415.16296     632.2388     397.5988   1415.16296     632.2388     397.5988
   1415.14771     630.7581     397.6450   1415.14771     630.7581     397.6450
   1415.13245     629.5897     396.7129   1415.13245     629.5897     396.7129
   1415.11719     628.4511     395.8002   1415.11719     628.4511     395.8002
   1415.10193     626.8541     395.6211   1415.10193     626.8541     395.6211
   1415.08667     625.4804     395.2668   1415.08667     625.4804     395.2668
   1415.07141     623.3647     395.9550   1415.07141     623.3647     395.9550
   1415.05615     622.2800     394.8301   1415.05615     622.2800     394.8301
   1415.04089     621.0681     393.3527   1415.04089     621.0681     393.3527
   1415.02563     620.2678     394.2034   1415.02563     620.2678     394.2034
   1415.01038     618.1082     393.8218   1415.01038     618.1082     393.8218
   1414.99512     617.8341     392.4162   1414.99512     617.8341     392.4162
   1414.97986     616.0716     392.0784   1414.97986     616.0716     392.0784
   1414.96460     613.3292     391.9739   1414.96460     613.3292     391.9739
   1414.94934     612.8323     391.2603   1414.94934     612.8323     391.2603
   1414.93408     611.2750     391.2598   1414.93408     611.2750     391.2598
   1414.91882     609.7148     390.1335   1414.91882     609.7148     390.1335
   1414.90356     607.4528     390.2424   1414.90356     607.4528     390.2424
   1414.88831     606.4819     389.4124   1414.88831     606.4819     389.4124
   1414.87305     605.0983     389.0881   1414.87305     605.0983     389.0881
   1414.85779     602.6602     388.1787   1414.85779     602.6602     388.1787
   1414.84253     600.3478     386.5171   1414.84253     600.3478     386.5171
   1414.82727     599.1742     387.2133   1414.82727     599.1742     387.2133
   1414.81201     597.6799     385.9427   1414.81201     597.6799     385.9427
   1414.79675     595.5081     385.6122   1414.79675     595.5081     385.6122
   1414.78149     593.5827     385.3369   1414.78149     593.5827     385.3369
   1414.76624     592.6042     383.5499   1414.76624     592.6042     383.5499
   1414.75098     590.5358     383.8176   1414.75098     590.5358     383.8176
   1414.73572     589.4739     383.4282   1414.73572     589.4739     383.4282
   1414.72046     587.3442     382.9079   1414.72046     587.3442     382.9079
   1414.70520     585.1161     381.6989   1414.70520     585.1161     381.6989
   1414.68994     584.4218     381.3358   1414.68994     584.4218     381.3358
   1414.67468     581.5172     380.8095   1414.67468     581.5172     380.8095
   1414.65942     580.3529     379.7786   1414.65942     580.3529     379.7786
   1414.64417     577.8866     379.4782   1414.64417     577.8866     379.4782
   1414.62891     575.6241     379.2967   1414.62891     575.6241     379.2967
   1414.61365     573.6295     377.8638   1414.61365     573.6295     377.8638
   1414.59839     571.8076     377.4590   1414.59839     571.8076     377.4590
   1414.58313     569.7421     376.6729   1414.58313     569.7421     376.6729
   1414.56787     568.1930     375.6874   1414.56787     568.1930     375.6874
   1414.55261     567.0831     374.6182   1414.55261     567.0831     374.6182
   1414.53735     563.5618     374.2122   1414.53735     563.5618     374.2122
   1414.52209     561.8419     372.6989   1414.52209     561.8419     372.6989
   1414.50684     560.2441     372.3654   1414.50684     560.2441     372.3654
   1414.49158     557.2169     372.2599   1414.49158     557.2169     372.2599
   1414.47632     556.7834     370.8527   1414.47632     556.7834     370.8527
   1414.46106     553.4671     370.3150   1414.46106     553.4671     370.3150
   1414.44580     552.0764     368.9793   1414.44580     552.0764     368.9793
   1414.43054     550.2019     368.9079   1414.43054     550.2019     368.9079
   1414.41528     547.3251     367.8582   1414.41528     547.3251     367.8582
   1414.40002     545.7460     366.6787   1414.40002     545.7460     366.6787
   1414.38477     542.5231     365.9717   1414.38477     542.5231     365.9717
   1414.36951     541.4973     365.2933   1414.36951     541.4973     365.2933
   1414.35425     538.4594     364.2639   1414.35425     538.4594     364.2639
   1414.33899     535.8616     363.4563   1414.33899     535.8616     363.4563
   1414.32373     534.0629     362.1779   1414.32373     534.0629     362.1779
   1414.30847     532.2522     361.6933   1414.30847     532.2522     361.6933
   1414.29321     530.8233     360.2532   1414.29321     530.8233     360.2532
   1414.27795     527.6583     358.7659   1414.27795     527.6583     358.7659
   1414.26270     525.5641     358.6434   1414.26270     525.5641     358.6434
   1414.24744     523.4501     357.3710   1414.24744     523.4501     357.3710
   1414.23218     520.8770     356.0453   1414.23218     520.8770     356.0453
   1414.21692     517.4252     355.1815   1414.21692     517.4252     355.1815
   1414.20166     516.1296     354.0647   1414.20166     516.1296     354.0647
   1414.18640     513.7343     353.3992   1414.18640     513.7343     353.3992
   1414.17114     511.3192     352.2584   1414.17114     511.3192     352.2584
   1414.15588     509.4731     352.7529   1414.15588     509.4731     352.7529
   1414.14062     506.7406     350.3604   1414.14062     506.7406     350.3604
   1414.12537     503.8602     350.1443   1414.12537     503.8602     350.1443
   1414.11011     502.0814     348.0733   1414.11011     502.0814     348.0733
   1414.09485     498.9470     347.0719   1414.09485     498.9470     347.0719
   1414.07959     496.4588     345.8774   1414.07959     496.4588     345.8774
   1414.06433     494.4415     344.9696   1414.06433     494.4415     344.9696
   1414.04907     492.2389     344.5626   1414.04907     492.2389     344.5626
   1414.03381     489.5371     343.2541   1414.03381     489.5371     343.2541
   1414.01855     488.5154     342.3627   1414.01855     488.5154     342.3627
   1414.00330     503.7861     347.1678   1414.00330     503.7861     347.1678
   1413.98804     483.0770     340.2457   1413.98804     483.0770     340.2457
   1413.97278     479.2540     338.1060   1413.97278     479.2540     338.1060
   1413.95752     477.5471     337.4336   1413.95752     477.5471     337.4336
   1413.94226     473.8025     336.7091   1413.94226     473.8025     336.7091
   1413.92700     472.7325     335.1556   1413.92700     472.7325     335.1556
   1413.91174     469.3153     333.4210   1413.91174     469.3153     333.4210
   1413.89648     466.3723     332.9601   1413.89648     466.3723     332.9601
   1413.88123     464.7576     331.6008   1413.88123     464.7576     331.6008
   1413.86597     461.4786     330.6044   1413.86597     461.4786     330.6044
   1413.85071     459.0779     328.9048   1413.85071     459.0779     328.9048
   1413.83545     456.9568     328.2003   1413.83545     456.9568     328.2003
   1413.82019     454.5199     326.9918   1413.82019     454.5199     326.9918
   1413.80493     451.8312     325.1011   1413.80493     451.8312     325.1011
   1413.78967     449.1198     324.0264   1413.78967     449.1198     324.0264
   1413.77441     446.2010     322.8221   1413.77441     446.2010     322.8221
   1413.75916     444.0794     321.9070   1413.75916     444.0794     321.9070
   1413.74390     441.7506     320.0055   1413.74390     441.7506     320.0055
   1413.72864     439.3623     319.6246   1413.72864     439.3623     319.6246
   1413.71338     436.3630     317.4684   1413.71338     436.3630     317.4684
   1413.69812     433.5108     317.3533   1413.69812     433.5108     317.3533
   1413.68286     431.2100     315.1880   1413.68286     431.2100     315.1880
   1413.66760     429.4584     314.5867   1413.66760     429.4584     314.5867
   1413.65234     426.1415     312.7235   1413.65234     426.1415     312.7235
   1413.63708     423.6612     311.6812   1413.63708     423.6612     311.6812
   1413.62183     421.3009     310.2028   1413.62183     421.3009     310.2028
   1413.60657     418.9651     309.2879   1413.60657     418.9651     309.2879
   1413.59131     416.5621     307.8895   1413.59131     416.5621     307.8895
   1413.57605     413.7256     306.7308   1413.57605     413.7256     306.7308
   1413.56079     411.1320     305.4925   1413.56079     411.1320     305.4925
   1413.54553     409.5851     303.9429   1413.54553     409.5851     303.9429
   1413.53027     406.3809     302.8464   1413.53027     406.3809     302.8464
   1413.51501     403.7605     301.7416   1413.51501     403.7605     301.7416
   1413.49976     401.6072     300.2097   1413.49976     401.6072     300.2097
   1413.48450     399.1568     298.7504   1413.48450     399.1568     298.7504
   1413.46924     396.6540     297.2744   1413.46924     396.6540     297.2744
   1413.45398     394.2103     296.1319   1413.45398     394.2103     296.1319
   1413.43872     391.9684     294.9597   1413.43872     391.9684     294.9597
   1413.42346     389.3378     293.2586   1413.42346     389.3378     293.2586
   1413.40820     386.5006     292.6111   1413.40820     386.5006     292.6111
   1413.39294     384.9354     291.6142   1413.39294     384.9354     291.6142
   1413.37769     382.4053     290.2640   1413.37769     382.4053     290.2640
   1413.36243     379.8925     288.7222   1413.36243     379.8925     288.7222
   1413.34717     377.7878     287.9687   1413.34717     377.7878     287.9687
   1413.33191     374.9032     285.7277   1413.33191     374.9032     285.7277
   1413.31665     373.7805     284.7635   1413.31665     373.7805     284.7635
   1413.30139     370.6979     283.4174   1413.30139     370.6979     283.4174
   1413.28613     368.7967     282.1331   1413.28613     368.7967     282.1331
   1413.27087     366.5655     281.1106   1413.27087     366.5655     281.1106
   1413.25562     364.2810     279.7397   1413.25562     364.2810     279.7397
   1413.24036     362.1038     278.7876   1413.24036     362.1038     278.7876
   1413.22510     360.0199     277.6144   1413.22510     360.0199     277.6144
   1413.20984     358.2361     276.3755   1413.20984     358.2361     276.3755
   1413.19458     355.4975     275.1420   1413.19458     355.4975     275.1420
   1413.17932     353.5853     273.0852   1413.17932     353.5853     273.0852
   1413.16406     352.0558     272.7561   1413.16406     352.0558     272.7561
   1413.14880     350.0016     271.1295   1413.14880     350.0016     271.1295
   1413.13354     347.9736     269.9323   1413.13354     347.9736     269.9323
   1413.11829     346.3711     269.1820   1413.11829     346.3711     269.1820
   1413.10303     343.9476     267.6283   1413.10303     343.9476     267.6283
   1413.08777     342.0734     266.7311   1413.08777     342.0734     266.7311
   1413.07251     340.0941     265.6108   1413.07251     340.0941     265.6108
   1413.05725     338.2590     264.4036   1413.05725     338.2590     264.4036
   1413.04199     336.6098     263.1732   1413.04199     336.6098     263.1732
   1413.02673     334.3651     262.3415   1413.02673     334.3651     262.3415
   1413.01147     332.8290     260.8922   1413.01147     332.8290     260.8922
   1412.99622     331.3438     259.9005   1412.99622     331.3438     259.9005
   1412.98096     329.5874     258.9680   1412.98096     329.5874     258.9680
   1412.96570     328.1992     258.2107   1412.96570     328.1992     258.2107
   1412.95044     326.7057     257.3390   1412.95044     326.7057     257.3390
   1412.93518     324.4428     256.0846   1412.93518     324.4428     256.0846
   1412.91992     322.9234     255.3563   1412.91992     322.9234     255.3563
   1412.90466     321.5002     254.0209   1412.90466     321.5002     254.0209
   1412.88940     320.4924     253.0337   1412.88940     320.4924     253.0337
   1412.87415     318.1951     252.8104   1412.87415     318.1951     252.8104
   1412.85889     316.8087     251.6293   1412.85889     316.8087     251.6293
   1412.84363     315.6429     250.5155   1412.84363     315.6429     250.5155
   1412.82837     314.8424     249.7922   1412.82837     314.8424     249.7922
   1412.81311     313.1896     248.7671   1412.81311     313.1896     248.7671
   1412.79785     311.7955     248.4251   1412.79785     311.7955     248.4251
   1412.78259     310.9414     247.6367   1412.78259     310.9414     247.6367
   1412.76733     309.5934     246.5012   1412.76733     309.5934     246.5012
   1412.75208     308.6438     245.7493   1412.75208     308.6438     245.7493
   1412.73682     307.4652     245.4052   1412.73682     307.4652     245.4052
   1412.72156     306.6344     244.2110   1412.72156     306.6344     244.2110
   1412.70630     305.5566     243.6913   1412.70630     305.5566     243.6913
   1412.69104     304.7964     243.0179   1412.69104     304.7964     243.0179
   1412.67578     303.5663     242.7610   1412.67578     303.5663     242.7610
   1412.66052     302.3189     241.4051   1412.66052     302.3189     241.4051
   1412.64526     302.2848     241.5352   1412.64526     302.2848     241.5352
   1412.63000     301.4464     241.0747   1412.63000     301.4464     241.0747
   1412.61475     300.3358     240.2929   1412.61475     300.3358     240.2929
   1412.59949     299.3978     240.1553   1412.59949     299.3978     240.1553
   1412.58423     299.0720     239.5796   1412.58423     299.0720     239.5796
   1412.56897     298.6991     239.0854   1412.56897     298.6991     239.0854
   1412.55371     297.9237     238.4880   1412.55371     297.9237     238.4880
   1412.53845     297.4326     238.5239   1412.53845     297.4326     238.5239
   1412.52319     296.3082     237.9096   1412.52319     296.3082     237.9096
   1412.50793     296.5309     237.7690   1412.50793     296.5309     237.7690
   1412.49268     296.0576     237.4199   1412.49268     296.0576     237.4199
   1412.47742     295.5862     237.1680   1412.47742     295.5862     237.1680
   1412.46216     295.1673     237.4212   1412.46216     295.1673     237.4212
   1412.44690     295.1915     237.1953   1412.44690     295.1915     237.1953
   1412.43164     294.6475     236.5357   1412.43164     294.6475     236.5357
   1412.41638     294.6732     236.8210   1412.41638     294.6732     236.8210
   1412.40112     294.7873     236.6838   1412.40112     294.7873     236.6838
   1412.38586     294.6266     236.2483   1412.38586     294.6266     236.2483
   1412.37061     294.5133     236.7373   1412.37061     294.5133     236.7373
   1412.35535     294.4704     236.8540   1412.35535     294.4704     236.8540
   1412.34009     293.9772     236.4610   1412.34009     293.9772     236.4610
   1412.32483     294.2694     236.8403   1412.32483     294.2694     236.8403
   1412.30957     294.5152     236.7546   1412.30957     294.5152     236.7546
   1412.29431     295.0153     236.5367   1412.29431     295.0153     236.5367
   1412.27905     294.9453     236.9109   1412.27905     294.9453     236.9109
   1412.26379     295.6006     237.4073   1412.26379     295.6006     237.4073
   1412.24854     295.7843     237.6996   1412.24854     295.7843     237.6996
   1412.23328     296.2623     238.1528   1412.23328     296.2623     238.1528
   1412.21802     296.9668     238.0842   1412.21802     296.9668     238.0842
   1412.20276     297.0780     238.7106   1412.20276     297.0780     238.7106